Data from USB2H080721_08-04-06-655.txt Node
Date: Wed May 10 08:04:06 BRT 2023
User: Quark
Spectrometer: USB2+H08072
Trigger mode: 4
Integration Time (sec): 1,000000E-2
Scans to average: 1
Electric dark correction enabled: true
Nonlinearity correction enabled: false
Boxcar width: 0
XAxis mode: Wavelengths
Number of Pixels in Spectrum: 2048
>>>>>Begin Spectral Data<<<<<
338,582	165,01
338,96	165,01
339,338	165,01
339,716	87,77
340,094	66,71
340,472	106,49
340,85	33,94
341,228	-1,17
341,606	-22,24
341,984	71,39
342,362	15,21
342,74	-5,85
343,117	5,85
343,495	-66,71
343,873	1,17
344,25	-26,92
344,628	-22,24
345,005	-31,6
345,383	-12,87
345,76	22,24
346,138	12,87
346,515	26,92
346,893	90,11
347,27	71,39
347,647	139,26
348,024	342,89
348,402	380,34
348,779	312,46
349,156	387,36
349,533	422,47
349,91	429,49
350,287	370,97
350,664	415,45
351,041	438,85
351,417	485,66
351,794	492,68
352,171	541,83
352,548	476,3
352,925	490,34
353,301	420,13
353,678	504,39
354,054	537,15
354,431	513,75
354,807	558,22
355,184	516,09
355,56	586,3
355,937	516,09
356,313	527,79
356,689	464,6
357,066	509,07
357,442	548,86
357,818	647,16
358,194	562,9
358,57	525,45
358,946	553,54
359,322	539,49
359,698	574,6
360,074	572,26
360,45	530,13
360,826	544,17
361,202	544,17
361,577	516,09
361,953	600,35
362,329	546,52
362,705	583,96
363,08	567,58
363,456	572,26
363,831	523,11
364,207	640,14
364,582	602,69
364,958	633,11
365,333	621,41
365,708	581,62
366,084	609,71
366,459	595,67
366,834	593,33
367,209	642,48
367,584	588,64
367,959	569,92
368,334	651,84
368,709	679,93
369,084	576,94
369,459	598,01
369,834	612,05
370,209	731,42
370,584	635,46
370,959	719,71
371,333	668,22
371,708	614,39
372,083	710,35
372,457	764,18
372,832	719,71
373,206	771,21
373,581	682,27
373,955	820,36
374,33	818,02
374,704	888,23
375,078	799,29
375,453	820,36
375,827	743,12
376,201	813,34
376,575	836,74
376,949	740,78
377,323	757,16
377,697	775,89
378,071	806,31
378,445	782,91
378,819	747,8
379,193	773,55
379,567	811
379,941	848,44
380,315	876,53
380,688	906,96
381,062	888,23
381,436	913,98
381,809	967,81
382,183	970,15
382,556	988,88
382,93	1002,92
383,303	1066,11
383,676	1124,63
384,05	1194,84
384,423	1241,65
384,796	1241,65
385,17	1265,06
385,543	1318,89
385,916	1307,19
386,289	1384,43
386,662	1274,42
387,035	1391,45
387,408	1424,22
387,781	1433,58
388,154	1389,11
388,527	1421,88
388,9	1466,35
389,272	1496,77
389,645	1578,69
390,018	1506,13
390,39	1538,9
390,763	1606,78
391,136	1674,65
391,508	1831,47
391,881	1833,81
392,253	1939,13
392,626	1913,39
392,998	1911,05
393,37	1899,34
393,742	1971,9
394,115	2131,06
394,487	2182,55
394,859	2212,98
395,231	2255,11
395,603	2297,24
395,975	2358,09
396,347	2395,54
396,719	2482,14
397,091	2608,53
397,463	2732,58
397,835	2936,2
398,207	3137,49
398,578	3479,21
398,95	3757,73
399,322	4228,18
399,693	4380,31
400,065	4633,09
400,437	4846,08
400,808	4548,83
401,18	4401,38
401,551	4408,4
401,922	4759,48
402,294	4876,51
402,665	5265,04
403,036	5653,56
403,408	5777,61
403,779	6266,78
404,15	6374,45
404,521	6538,29
404,892	6882,35
405,263	7039,16
405,634	7069,59
406,005	7558,76
406,376	7799,84
406,747	8375,61
407,118	8696,26
407,488	9342,25
407,859	9765,89
408,23	9747,16
408,6	9679,29
408,971	9929,72
409,342	10241,01
409,712	10292,51
410,083	10711,46
410,453	10538,26
410,823	10800,4
411,194	10772,32
411,564	11121,06
411,934	11659,38
412,305	11408,94
412,675	11446,39
413,045	11563,42
413,415	11418,3
413,785	11603,21
414,155	12361,54
414,525	12817,94
414,895	12902,2
415,265	12916,25
415,635	13398,4
416,005	13676,92
416,375	13578,62
416,744	14100,56
417,114	14350,99
417,484	14954,85
417,853	14781,65
418,223	15493,18
418,592	16209,38
418,962	16754,72
419,331	17070,7
419,701	17159,64
420,07	16771,11
420,439	17246,24
420,809	17267,3
421,178	17487,31
421,547	17147,93
421,916	18390,76
422,285	18266,71
422,655	18931,42
423,024	19558,69
423,393	19902,75
423,762	20668,1
424,13	20888,11
424,499	20686,82
424,868	20593,2
425,237	19977,64
425,606	20246,8
425,974	19301,23
426,343	19207,61
426,712	18940,79
427,08	18678,65
427,449	18589,7
427,817	18442,25
428,186	18163,73
428,554	18463,32
428,923	18489,06
429,291	18575,66
429,659	18166,07
430,028	18266,71
430,396	17943,72
430,764	18285,44
431,132	18922,06
431,5	18727,8
431,868	19647,63
432,236	20218,72
432,604	20340,43
432,972	19984,66
433,34	20539,37
433,708	20256,17
434,076	20583,84
434,443	21515,37
434,811	22978,21
435,179	24181,24
435,546	23111,62
435,914	21349,2
436,282	20405,96
436,649	20974,71
437,017	20155,52
437,384	20689,17
437,751	19472,09
438,119	19011
438,486	19336,34
438,853	19128,03
439,221	19589,11
439,588	19324,63
439,955	20040,84
440,322	20644,7
440,689	20347,45
441,056	21396,01
441,423	22655,22
441,79	23366,74
442,157	23907,4
442,524	23385,46
442,89	23345,67
443,257	23369,08
443,624	24319,34
443,991	25138,52
444,357	25569,18
444,724	28092,28
445,09	28546,34
445,457	27247,35
445,823	24979,37
446,19	22723,09
446,556	21435,8
446,923	21199,4
447,289	20370,85
447,655	19467,41
448,021	19570,39
448,387	19165,48
448,754	19160,8
449,12	18615,45
449,486	18936,1
449,852	18386,08
450,218	18737,16
450,584	19635,92
450,95	19769,33
451,315	19947,22
451,681	19488,47
452,047	19947,22
452,413	19710,82
452,778	19638,26
453,144	19308,25
453,51	19509,54
453,875	19322,29
454,241	18919,72
454,606	18805,03
454,972	18666,94
455,337	18554,6
455,702	18580,34
456,068	18992,28
456,433	18849,5
456,798	18758,22
457,163	18582,68
457,528	18744,18
457,893	18709,07
458,259	19919,13
458,624	20066,58
458,989	21274,3
459,353	22744,16
459,718	24700,84
460,083	26107,51
460,448	28597,84
460,813	29520,01
461,177	29594,9
461,542	29789,17
461,907	30123,86
462,271	31919,06
462,636	33791,48
463	37232,07
463,365	39266
463,729	39457,92
464,094	37302,29
464,458	35324,54
464,822	33929,58
465,187	30966,46
465,551	27982,27
465,915	25388,96
466,279	23656,96
466,643	22730,11
467,007	22306,48
467,371	22173,07
467,735	21491,97
468,099	21147,91
468,463	20490,22
468,827	20396,6
469,191	20906,84
469,554	21491,97
469,918	21941,35
470,282	22652,87
470,645	22837,78
471,009	22961,83
471,372	21559,84
471,736	21440,48
472,099	20232,76
472,463	19888,7
472,826	19586,77
473,189	19249,74
473,553	19069,51
473,916	19188,88
474,279	18760,56
474,642	19018,02
475,005	18966,53
475,369	19186,54
475,732	19481,45
476,095	19823,17
476,458	19551,67
476,82	20284,25
477,183	20743
477,546	21669,85
477,909	22465,63
478,272	23806,76
478,634	25192,36
478,997	25475,56
479,36	25718,98
479,722	25669,83
480,085	26844,77
480,447	27032,02
480,81	26952,44
481,172	25700,25
481,534	24059,54
481,897	22467,97
482,259	22027,95
482,621	21456,86
482,983	21632,4
483,346	22011,57
483,708	21812,62
484,07	22159,02
484,432	22233,92
484,794	22837,78
485,156	22823,73
485,518	23734,2
485,879	24033,79
486,241	24401,26
486,603	24352,1
486,965	23727,18
487,326	23549,3
487,688	23120,98
488,05	23238,01
488,411	23291,84
488,773	22163,7
489,134	22613,09
489,496	23018
489,857	23008,64
490,218	23057,79
490,58	23160,77
490,941	23205,24
491,302	23446,32
491,663	22952,46
492,024	23408,87
492,385	23399,51
492,746	23652,28
493,107	23675,69
493,468	24197,63
493,829	25033,2
494,19	25358,53
494,551	24965,32
494,912	24864,68
495,273	24569,77
495,633	24925,54
495,994	25332,79
496,355	25552,8
496,715	26149,64
497,076	26933,71
497,436	28080,58
497,797	29873,43
498,157	32815,48
498,517	37129,09
498,878	42432,74
499,238	50219,7
499,598	57164,07
499,958	63162,87
500,319	64590,59
500,679	64590,59
501,039	64590,59
501,399	59518,65
501,759	52852,81
502,119	46074,62
502,479	40178,81
502,838	36639,92
503,198	33445,09
503,558	31626,49
503,918	30418,77
504,277	31074,12
504,637	30716,02
504,997	29089,35
505,356	26587,32
505,716	24216,35
506,075	23184,18
506,435	22648,19
506,794	22102,85
507,153	21688,57
507,513	21431,12
507,872	20965,35
508,231	20593,2
508,59	20513,63
508,949	19930,83
509,308	19460,38
509,668	19635,92
510,027	19881,68
510,385	19535,28
510,744	19591,45
511,103	19575,07
511,462	19474,43
511,821	19462,72
512,18	19481,45
512,538	19502,51
512,897	19743,59
513,256	19818,49
513,614	19558,69
513,973	19757,63
514,331	19877
514,69	20796,83
515,048	21044,93
515,406	21632,4
515,765	22313,5
516,123	23333,97
516,481	25421,73
516,839	27399,48
517,197	30528,78
517,556	32099,28
517,914	32003,32
518,272	31043,7
518,63	28391,87
518,988	26140,27
519,345	24190,61
519,703	22566,28
520,061	22119,23
520,419	21335,15
520,777	20855,34
521,134	20019,77
521,492	19930,83
521,849	19621,88
522,207	19338,68
522,564	18833,12
522,922	18706,73
523,279	18896,32
523,637	18606,09
523,994	18484,38
524,351	18016,27
524,709	18322,88
525,066	18315,86
525,423	18343,95
525,78	18137,98
526,137	17847,76
526,494	18278,41
526,851	18301,82
527,208	18147,34
527,565	18095,85
527,922	18273,73
528,279	18093,51
528,635	18554,6
528,992	18285,44
529,349	18243,31
529,705	18140,32
530,062	18278,41
530,419	18177,77
530,775	18130,96
531,131	18498,42
531,488	18489,06
531,844	18709,07
532,201	19053,13
532,557	18491,4
532,913	18678,65
533,269	18727,8
533,626	18453,95
533,982	18561,62
534,338	18563,96
534,694	18130,96
535,05	17988,19
535,406	17899,25
535,762	18035
536,117	17723,71
536,473	17433,48
536,829	17185,38
537,185	17356,24
537,54	16977,08
537,896	17190,06
538,252	16726,64
538,607	16827,28
538,963	16459,82
539,318	16541,74
539,674	16604,93
540,029	16546,42
540,384	16438,75
540,74	16401,3
541,095	16602,59
541,45	16546,42
541,805	16373,22
542,16	16239,81
542,516	16717,28
542,871	16274,92
543,226	16434,07
543,581	16352,15
543,935	16768,77
544,29	16909,2
544,645	17000,48
545	17704,98
545,355	17861,8
545,709	17988,19
546,064	17894,57
546,419	17751,79
546,773	17777,54
547,128	17632,43
547,482	18002,23
547,837	18203,52
548,191	18613,11
548,545	18247,99
548,9	18931,42
549,254	19034,41
549,608	18957,17
549,962	18601,41
550,316	18432,89
550,67	18072,45
551,024	17981,17
551,378	18126,28
551,732	18704,39
552,086	19392,51
552,44	20356,81
552,794	21159,61
553,148	22025,61
553,501	21948,37
553,855	21405,37
554,209	19998,71
554,562	19106,96
554,916	18781,63
555,27	17894,57
555,623	17571,57
555,976	17119,85
556,33	16424,71
556,683	16448,11
557,036	16047,88
557,39	16003,41
557,743	15834,89
558,096	15972,99
558,449	15907,45
558,802	15820,85
559,155	15619,57
559,508	15774,04
559,861	15596,16
560,214	15708,51
560,567	15507,22
560,92	15724,89
561,273	15982,35
561,625	15965,96
561,978	16113,42
562,331	16373,22
562,683	16544,08
563,036	16775,79
563,388	16853,03
563,741	17241,56
564,093	17630,09
564,446	18201,18
564,798	19373,78
565,15	20230,42
565,503	22034,97
565,855	25529,39
566,207	29381,92
566,559	33232,1
566,911	35479,01
567,263	38917,26
567,615	41063,53
567,967	39998,59
568,319	34835,36
568,671	29276,59
569,023	25190,02
569,374	22500,74
569,726	20958,33
570,078	19799,76
570,429	19605,5
570,781	19558,69
571,133	18779,29
571,484	17391,35
571,836	16696,21
572,187	16162,57
572,538	15366,79
572,89	14903,36
573,241	14830,8
573,592	14919,74
573,943	14617,82
574,295	15088,26
574,646	14772,29
574,997	14582,71
575,348	14102,9
575,699	13953,1
576,05	13857,14
576,401	13735,43
576,751	13590,32
577,102	13335,2
577,453	13264,99
577,804	13089,45
578,154	12841,35
578,505	12658,79
578,856	12523,04
579,206	12459,84
579,557	12721,98
579,907	12380,26
580,258	12216,43
580,608	12525,38
580,958	12363,88
581,308	12391,97
581,659	12188,34
582,009	12204,72
582,359	12214,09
582,709	12200,04
583,059	12193,02
583,409	11984,71
583,759	12024,5
584,109	12073,65
584,459	11823,22
584,809	11970,67
585,159	11699,17
585,508	12141,53
585,858	11738,96
586,208	11886,41
586,557	11827,9
586,907	11893,43
587,256	11933,22
587,606	11867,69
587,955	11858,32
588,305	12195,36
588,654	12218,77
589,003	12321,75
589,353	12188,34
589,702	12263,24
590,051	12434,1
590,4	12700,92
590,749	13028,59
591,098	13328,18
591,447	13705,01
591,796	14624,84
592,145	15853,62
592,494	16934,95
592,843	18247,99
593,192	18868,23
593,54	19214,63
593,889	19642,95
594,238	18753,54
594,586	17742,43
594,935	16211,72
595,283	15256,78
595,632	13960,13
595,98	13726,07
596,329	13014,55
596,677	12281,96
597,025	12204,72
597,374	11617,25
597,722	11523,63
598,07	11598,52
598,418	11205,31
598,766	11144,46
599,114	10999,35
599,462	11254,47
599,81	11029,77
600,158	11123,4
600,506	11139,78
600,854	11167,87
601,201	11088,29
601,549	11195,95
601,897	10903,39
602,244	10737,21
602,592	10592,09
602,939	10718,48
603,287	10798,06
603,634	10449,32
603,982	10479,75
604,329	10411,87
604,676	10573,37
605,024	10486,77
605,371	10666,99
605,718	10278,46
606,065	10379,11
606,412	10425,92
606,759	10374,42
607,106	10449,32
607,453	10318,25
607,8	10264,42
608,147	10145,05
608,494	10493,79
608,841	10376,77
609,187	10428,26
609,534	10484,43
609,881	10468,05
610,227	10381,45
610,574	10507,84
610,92	10336,98
611,267	10355,7
611,613	10395,49
611,96	10493,79
612,306	10241,01
612,652	10409,53
612,999	10360,38
613,345	10191,86
613,691	10351,02
614,037	10334,64
614,383	10271,44
614,729	10479,75
615,075	10760,61
615,421	10987,64
615,767	11296,6
616,113	11430,01
616,459	11500,22
616,804	11518,95
617,15	11481,5
617,496	11334,04
617,841	11224,04
618,187	11018,07
618,533	11015,73
618,878	10868,28
619,223	10774,66
619,569	10753,59
619,914	10594,43
620,26	10402,51
620,605	10470,39
620,95	10435,28
621,295	10086,54
621,64	10039,73
621,985	10346,34
622,33	9960,15
622,675	9815,04
623,02	9915,68
623,365	9936,74
623,71	9616,09
624,055	9576,3
624,4	9414,8
624,744	9580,98
625,089	9576,3
625,434	9288,42
625,778	9459,28
626,123	9559,92
626,467	9162,03
626,812	9398,42
627,156	9265,01
627,501	9414,8
627,845	9325,86
628,189	9265,01
628,533	9096,49
628,878	8991,17
629,222	9052,02
629,566	8862,44
629,91	8862,44
630,254	8820,31
630,598	8595,62
630,942	8665,83
631,286	8789,88
631,63	8677,54
631,973	8644,77
632,317	8609,66
632,661	8497,31
633,004	8473,91
633,348	8502
633,692	8548,81
634,035	8413,06
634,379	8614,34
634,722	8359,22
635,065	8324,12
635,409	8274,96
635,752	8544,13
636,095	8207,09
636,438	8270,28
636,782	8361,56
637,125	8438,8
637,468	8621,36
637,811	8380,29
638,154	8382,63
638,497	8464,55
638,84	8134,53
639,182	8022,19
639,525	7970,69
639,868	8045,59
640,211	7853,67
640,553	7837,28
640,896	7823,24
641,239	7767,07
641,581	7912,18
641,924	7593,87
642,266	7799,84
642,608	7757,71
642,951	7788,13
643,293	7982,4
643,635	7973,03
643,978	7825,58
644,32	8003,46
644,662	8031,55
645,004	8239,86
645,346	8246,88
645,688	8420,08
646,03	8471,57
646,372	8569,87
646,714	8972,44
647,055	9143,3
647,397	9463,96
647,739	10035,05
648,081	10346,34
648,422	10135,69
648,764	9929,72
649,105	9517,79
649,447	9372,68
649,788	8993,51
650,13	8803,93
650,471	8586,26
650,812	8759,45
651,153	8457,53
651,495	8193,05
651,836	8197,73
652,177	8359,22
652,518	8120,49
652,859	8052,61
653,2	8085,38
653,541	8387,31
653,882	8422,42
654,223	8527,74
654,564	8689,24
654,904	9056,7
655,245	9803,33
655,586	10446,98
655,926	10849,55
656,267	11320
656,607	10725,5
656,948	10149,73
657,288	9503,75
657,629	9150,32
657,969	8899,89
658,309	8822,65
658,65	8679,88
658,99	8604,98
659,33	8700,94
659,67	8967,76
660,01	9138,62
660,35	9342,25
660,69	9353,95
661,03	8918,61
661,37	8614,34
661,71	8176,66
662,05	7816,22
662,39	7671,11
662,729	7514,29
663,069	7266,19
663,409	7151,51
663,748	7186,61
664,088	7205,34
664,427	7167,89
664,767	7252,15
665,106	7284,92
665,445	7207,68
665,785	7053,2
666,124	6751,28
666,463	6858,94
666,802	6795,75
667,142	6451,69
667,481	6568,71
667,82	6229,34
668,159	6287,85
668,498	6262,1
668,837	6271,47
669,175	6154,44
669,514	5866,55
669,853	6067,84
670,192	6049,11
670,53	6119,33
670,869	6128,69
671,208	6138,05
671,546	6065,5
671,885	5969,54
672,223	5971,88
672,561	6131,03
672,9	6189,55
673,238	5962,51
673,576	5794
673,915	5721,44
674,253	5625,48
674,591	5721,44
674,929	5686,33
675,267	5733,14
675,605	5550,58
675,943	5485,05
676,281	5529,52
676,619	5206,52
676,956	5346,95
677,294	5358,66
677,632	5199,5
677,97	5250,99
678,307	5372,7
678,645	5068,43
678,982	5068,43
679,32	5150,35
679,657	5136,31
679,995	5023,96
680,332	4970,13
680,669	4862,46
681,006	5016,94
681,344	4878,85
681,681	4733,73
682,018	5035,66
682,355	4810,97
682,692	4775,86
683,029	4801,61
683,366	4715,01
683,703	4820,33
684,04	4752,46
684,376	4630,75
684,713	4717,35
685,05	4569,9
685,387	4822,67
685,723	4567,56
686,06	4572,24
686,396	4548,83
686,733	4799,27
687,069	4761,82
687,406	4553,51
687,742	4478,62
688,078	4380,31
688,414	4373,29
688,751	4310,1
689,087	4333,5
689,423	4427,12
689,759	4335,84
690,095	4328,82
690,431	4265,63
690,767	4328,82
691,103	4244,56
691,439	4384,99
691,774	4253,92
692,11	4169,66
692,446	4279,67
692,781	4258,6
693,117	4223,5
693,453	4270,31
693,788	4195,41
694,124	4094,77
694,459	4265,63
694,794	4200,09
695,13	4218,82
695,465	4050,3
695,8	4129,88
696,135	4218,82
696,471	3977,74
696,806	4062
697,141	4141,58
697,476	4029,23
697,811	4064,34
698,146	4001,15
698,48	3933,27
698,815	4104,13
699,15	3881,78
699,485	3914,55
699,819	3884,12
700,154	3849,01
700,489	3863,05
700,823	3774,11
701,158	3746,03
701,492	3605,6
701,826	3837,31
702,161	3577,51
702,495	3465,16
702,829	3533,04
703,164	3600,91
703,498	3596,23
703,832	3551,76
704,166	3479,21
704,5	3401,97
704,834	3401,97
705,168	3432,4
705,502	3453,46
705,836	3287,28
706,169	3399,63
706,503	3453,46
706,837	3404,31
707,171	3334,09
707,504	3263,88
707,838	3196
708,171	3334,09
708,505	3270,9
708,838	3310,69
709,172	3259,2
709,505	3205,36
709,838	3149,19
710,171	3259,2
710,505	3137,49
710,838	3167,92
711,171	3102,38
711,504	3193,66
711,837	3174,94
712,17	3109,4
712,503	3172,6
712,836	3088,34
713,169	3041,53
713,501	3125,79
713,834	3219,41
714,167	3212,39
714,499	3467,5
714,832	3589,21
715,165	3961,36
715,497	4345,2
715,83	4120,51
716,162	3621,98
716,494	3430,06
716,827	3331,75
717,159	3224,09
717,491	3156,21
717,823	3128,13
718,155	3006,42
718,488	2987,69
718,82	3083,66
719,152	3060,25
719,484	2784,07
719,815	2973,65
720,147	2816,83
720,479	2847,26
720,811	2734,92
721,143	2931,52
721,474	2786,41
721,806	2692,79
722,137	2779,39
722,469	2767,68
722,8	2823,86
723,132	2657,68
723,463	2732,58
723,795	2697,47
724,126	2697,47
724,457	2760,66
724,788	2695,13
725,119	2767,68
725,451	2671,72
725,782	2713,85
726,113	2667,04
726,444	2655,34
726,775	2744,28
727,105	2669,38
727,436	2688,11
727,767	2655,34
728,098	2692,79
728,428	2437,67
728,759	2589,8
729,09	2620,23
729,42	2587,46
729,751	2545,33
730,081	2510,22
730,412	2491,5
730,742	2676,4
731,072	2435,33
731,403	2568,74
731,733	2425,97
732,063	2500,86
732,393	2550,01
732,723	2521,93
733,053	2528,95
733,383	2505,54
733,713	2477,46
734,043	2479,8
734,373	2540,65
734,703	2475,12
735,032	2489,16
735,362	2493,84
735,692	2505,54
736,021	2545,33
736,351	2521,93
736,68	2449,37
737,01	2552,35
737,339	2512,57
737,669	2463,41
737,998	2505,54
738,327	2472,78
738,657	2589,8
738,986	2498,52
739,315	2554,69
739,644	2685,76
739,973	2503,2
740,302	2645,98
740,631	2617,89
740,96	2865,99
741,289	3306,01
741,618	4207,11
741,946	5098,86
742,275	5442,92
742,604	4614,37
742,932	4253,92
