Data from USB2H080721_03-36-18-236.txt Node
Date: Tue May 16 03:36:18 BRT 2023
User: Quark
Spectrometer: USB2+H08072
Trigger mode: 4
Integration Time (sec): 1,000000E-1
Scans to average: 1
Electric dark correction enabled: true
Nonlinearity correction enabled: false
Boxcar width: 0
XAxis mode: Wavelengths
Number of Pixels in Spectrum: 2048
>>>>>Begin Spectral Data<<<<<
338,582	135,46
338,96	135,46
339,338	135,46
339,716	46,52
340,094	46,52
340,472	9,07
340,85	-37,74
341,228	-42,42
341,606	-2,63
341,984	-12
342,362	37,16
342,74	-0,29
343,117	-14,34
343,495	-14,34
343,873	-54,12
344,25	27,79
344,628	-42,42
345,005	-19,02
345,383	-4,97
345,76	39,5
346,138	44,18
346,515	95,67
346,893	18,43
347,27	37,16
347,647	74,6
348,024	44,18
348,402	76,95
348,779	55,88
349,156	44,18
349,533	158,86
349,91	60,56
350,287	137,8
350,664	69,92
351,041	81,63
351,417	90,99
351,794	88,65
352,171	170,57
352,548	184,61
352,925	158,86
353,301	76,95
353,678	158,86
354,054	149,5
354,431	79,29
354,807	151,84
355,184	205,67
355,56	259,51
355,937	144,82
356,313	161,2
356,689	119,07
357,066	79,29
357,442	163,54
357,818	158,86
358,194	142,48
358,57	137,8
358,946	100,35
359,322	90,99
359,698	105,03
360,074	105,03
360,45	109,71
360,826	191,63
361,202	109,71
361,577	90,99
361,953	161,2
362,329	114,39
362,705	105,03
363,08	156,52
363,456	165,89
363,831	90,99
364,207	266,53
364,582	177,59
364,958	137,8
365,333	98,01
365,708	105,03
366,084	177,59
366,459	119,07
366,834	156,52
367,209	203,33
367,584	163,54
367,959	55,88
368,334	112,05
368,709	172,91
369,084	130,78
369,459	98,01
369,834	154,18
370,209	133,12
370,584	154,18
370,959	88,65
371,333	140,14
371,708	184,61
372,083	158,86
372,457	161,2
372,832	151,84
373,206	193,97
373,581	151,84
373,955	215,04
374,33	184,61
374,704	116,73
375,078	107,37
375,453	98,01
375,827	90,99
376,201	154,18
376,575	147,16
376,949	175,25
377,323	88,65
377,697	123,76
378,071	130,78
378,445	126,1
378,819	27,79
379,193	126,1
379,567	137,8
379,941	119,07
380,315	102,69
380,688	142,48
381,062	142,48
381,436	130,78
381,809	88,65
382,183	135,46
382,556	154,18
382,93	119,07
383,303	123,76
383,676	112,05
384,05	32,47
384,423	130,78
384,796	114,39
385,17	95,67
385,543	109,71
385,916	144,82
386,289	116,73
386,662	154,18
387,035	177,59
387,408	154,18
387,781	98,01
388,154	95,67
388,527	158,86
388,9	123,76
389,272	83,97
389,645	116,73
390,018	184,61
390,39	109,71
390,763	83,97
391,136	140,14
391,508	191,63
391,881	116,73
392,253	137,8
392,626	168,23
392,998	107,37
393,37	100,35
393,742	93,33
394,115	200,99
394,487	105,03
394,859	88,65
395,231	156,52
395,603	114,39
395,975	144,82
396,347	128,44
396,719	140,14
397,091	144,82
397,463	116,73
397,835	182,27
398,207	233,76
398,578	116,73
398,95	170,57
399,322	88,65
399,693	119,07
400,065	81,63
400,437	196,31
400,808	133,12
401,18	102,69
401,551	140,14
401,922	100,35
402,294	137,8
402,665	107,37
403,036	76,95
403,408	170,57
403,779	149,5
404,15	177,59
404,521	130,78
404,892	161,2
405,263	123,76
405,634	83,97
406,005	98,01
406,376	130,78
406,747	144,82
407,118	76,95
407,488	144,82
407,859	147,16
408,23	98,01
408,6	121,42
408,971	151,84
409,342	126,1
409,712	149,5
410,083	119,07
410,453	114,39
410,823	121,42
411,194	98,01
411,564	203,33
411,934	123,76
412,305	123,76
412,675	226,74
413,045	114,39
413,415	123,76
413,785	142,48
414,155	142,48
414,525	208,02
414,895	198,65
415,265	130,78
415,635	158,86
416,005	121,42
416,375	109,71
416,744	123,76
417,114	172,91
417,484	175,25
417,853	119,07
418,223	163,54
418,592	170,57
418,962	168,23
419,331	105,03
419,701	158,86
420,07	182,27
420,439	158,86
420,809	126,1
421,178	163,54
421,547	186,95
421,916	198,65
422,285	137,8
422,655	170,57
423,024	116,73
423,393	58,22
423,762	100,35
424,13	123,76
424,499	154,18
424,868	186,95
425,237	179,93
425,606	126,1
425,974	135,46
426,343	105,03
426,712	147,16
427,08	130,78
427,449	123,76
427,817	142,48
428,186	126,1
428,554	107,37
428,923	154,18
429,291	205,67
429,659	130,78
430,028	158,86
430,396	128,44
430,764	128,44
431,132	182,27
431,5	179,93
431,868	243,12
432,236	114,39
432,604	93,33
432,972	189,29
433,34	177,59
433,708	137,8
434,076	44,18
434,443	112,05
434,811	165,89
435,179	149,5
435,546	172,91
435,914	154,18
436,282	205,67
436,649	140,14
437,017	170,57
437,384	130,78
437,751	123,76
438,119	158,86
438,486	128,44
438,853	168,23
439,221	121,42
439,588	133,12
439,955	172,91
440,322	147,16
440,689	69,92
441,056	109,71
441,423	123,76
441,79	158,86
442,157	210,36
442,524	240,78
442,89	156,52
443,257	93,33
443,624	142,48
443,991	158,86
444,357	137,8
444,724	191,63
445,09	156,52
445,457	161,2
445,823	147,16
446,19	161,2
446,556	175,25
446,923	98,01
447,289	126,1
447,655	172,91
448,021	130,78
448,387	83,97
448,754	123,76
449,12	193,97
449,486	137,8
449,852	130,78
450,218	83,97
450,584	88,65
450,95	168,23
451,315	119,07
451,681	137,8
452,047	193,97
452,413	121,42
452,778	168,23
453,144	140,14
453,51	90,99
453,875	121,42
454,241	100,35
454,606	149,5
454,972	114,39
455,337	222,06
455,702	179,93
456,068	154,18
456,433	191,63
456,798	147,16
457,163	158,86
457,528	161,2
457,893	135,46
458,259	109,71
458,624	226,74
458,989	107,37
459,353	208,02
459,718	186,95
460,083	156,52
460,448	158,86
460,813	189,29
461,177	105,03
461,542	402,28
461,907	156,52
462,271	133,12
462,636	142,48
463	88,65
463,365	123,76
463,729	147,16
464,094	90,99
464,458	172,91
464,822	137,8
465,187	151,84
465,551	154,18
465,915	140,14
466,279	264,19
466,643	109,71
467,007	102,69
467,371	184,61
467,735	114,39
468,099	128,44
468,463	158,86
468,827	130,78
469,191	210,36
469,554	149,5
469,918	186,95
470,282	151,84
470,645	140,14
471,009	79,29
471,372	184,61
471,736	140,14
472,099	149,5
472,463	163,54
472,826	93,33
473,189	126,1
473,553	158,86
473,916	130,78
474,279	189,29
474,642	126,1
475,005	182,27
475,369	189,29
475,732	69,92
476,095	165,89
476,458	133,12
476,82	109,71
477,183	186,95
477,546	165,89
477,909	161,2
478,272	165,89
478,634	191,63
478,997	182,27
479,36	114,39
479,722	114,39
480,085	208,02
480,447	149,5
480,81	142,48
481,172	119,07
481,534	112,05
481,897	158,86
482,259	95,67
482,621	100,35
482,983	149,5
483,346	149,5
483,708	165,89
484,07	128,44
484,432	149,5
484,794	147,16
485,156	151,84
485,518	119,07
485,879	149,5
486,241	86,31
486,603	102,69
486,965	128,44
487,326	105,03
487,688	93,33
488,05	191,63
488,411	177,59
488,773	137,8
489,134	142,48
489,496	130,78
489,857	55,88
490,218	123,76
490,58	210,36
490,941	107,37
491,302	147,16
491,663	100,35
492,024	168,23
492,385	126,1
492,746	121,42
493,107	128,44
493,468	69,92
493,829	156,52
494,19	135,46
494,551	222,06
494,912	177,59
495,273	137,8
495,633	126,1
495,994	161,2
496,355	112,05
496,715	198,65
497,076	224,4
497,436	93,33
497,797	161,2
498,157	98,01
498,517	161,2
498,878	126,1
499,238	142,48
499,598	135,46
499,958	158,86
500,319	126,1
500,679	121,42
501,039	76,95
501,399	135,46
501,759	163,54
502,119	121,42
502,479	156,52
502,838	112,05
503,198	128,44
503,558	102,69
503,918	126,1
504,277	128,44
504,637	116,73
504,997	67,58
505,356	105,03
505,716	121,42
506,075	231,42
506,435	165,89
506,794	130,78
507,153	161,2
507,513	109,71
507,872	95,67
508,231	119,07
508,59	144,82
508,949	128,44
509,308	149,5
509,668	105,03
510,027	121,42
510,385	151,84
510,744	172,91
511,103	182,27
511,462	186,95
511,821	100,35
512,18	175,25
512,538	95,67
512,897	144,82
513,256	112,05
513,614	151,84
513,973	163,54
514,331	151,84
514,69	133,12
515,048	112,05
515,406	182,27
515,765	170,57
516,123	126,1
516,481	81,63
516,839	182,27
517,197	217,38
517,556	158,86
517,914	149,5
518,272	114,39
518,63	156,52
518,988	144,82
519,345	126,1
519,703	133,12
520,061	149,5
520,419	130,78
520,777	156,52
521,134	149,5
521,492	140,14
521,849	98,01
522,207	154,18
522,564	154,18
522,922	193,97
523,279	158,86
523,637	186,95
523,994	147,16
524,351	144,82
524,709	238,44
525,066	165,89
525,423	121,42
525,78	126,1
526,137	163,54
526,494	170,57
526,851	142,48
527,208	116,73
527,565	114,39
527,922	149,5
528,279	208,02
528,635	126,1
528,992	179,93
529,349	142,48
529,705	147,16
530,062	130,78
530,419	121,42
530,775	142,48
531,131	88,65
531,488	182,27
531,844	112,05
532,201	121,42
532,557	149,5
532,913	203,33
533,269	130,78
533,626	161,2
533,982	163,54
534,338	65,24
534,694	161,2
535,05	154,18
535,406	224,4
535,762	133,12
536,117	168,23
536,473	140,14
536,829	193,97
537,185	200,99
537,54	144,82
537,896	154,18
538,252	189,29
538,607	142,48
538,963	121,42
539,318	88,65
539,674	137,8
540,029	137,8
540,384	137,8
540,74	170,57
541,095	184,61
541,45	130,78
541,805	90,99
542,16	177,59
542,516	48,86
542,871	60,56
543,226	119,07
543,581	102,69
543,935	193,97
544,29	156,52
544,645	133,12
545	112,05
545,355	123,76
545,709	158,86
546,064	193,97
546,419	147,16
546,773	163,54
547,128	140,14
547,482	229,08
547,837	114,39
548,191	128,44
548,545	144,82
548,9	126,1
549,254	130,78
549,608	119,07
549,962	168,23
550,316	76,95
550,67	163,54
551,024	112,05
551,378	158,86
551,732	144,82
552,086	175,25
552,44	37,16
552,794	51,2
553,148	217,38
553,501	156,52
553,855	165,89
554,209	212,7
554,562	217,38
554,916	60,56
555,27	182,27
555,623	163,54
555,976	184,61
556,33	184,61
556,683	151,84
557,036	151,84
557,39	149,5
557,743	126,1
558,096	90,99
558,449	100,35
558,802	147,16
559,155	109,71
559,508	154,18
559,861	140,14
560,214	130,78
560,567	151,84
560,92	156,52
561,273	137,8
561,625	128,44
561,978	135,46
562,331	102,69
562,683	156,52
563,036	154,18
563,388	79,29
563,741	72,26
564,093	88,65
564,446	95,67
564,798	193,97
565,15	130,78
565,503	65,24
565,855	107,37
566,207	93,33
566,559	116,73
566,911	154,18
567,263	79,29
567,615	98,01
567,967	189,29
568,319	168,23
568,671	102,69
569,023	149,5
569,374	149,5
569,726	79,29
570,078	156,52
570,429	193,97
570,781	179,93
571,133	151,84
571,484	163,54
571,836	112,05
572,187	170,57
572,538	156,52
572,89	182,27
573,241	119,07
573,592	172,91
573,943	147,16
574,295	116,73
574,646	142,48
574,997	142,48
575,348	114,39
575,699	163,54
576,05	62,9
576,401	151,84
576,751	208,02
577,102	98,01
577,453	184,61
577,804	128,44
578,154	95,67
578,505	177,59
578,856	189,29
579,206	161,2
579,557	154,18
579,907	212,7
580,258	140,14
580,608	149,5
580,958	123,76
581,308	67,58
581,659	161,2
582,009	109,71
582,359	200,99
582,709	116,73
583,059	112,05
583,409	133,12
583,759	177,59
584,109	137,8
584,459	147,16
584,809	179,93
585,159	107,37
585,508	137,8
585,858	83,97
586,208	208,02
586,557	102,69
586,907	142,48
587,256	140,14
587,606	158,86
587,955	163,54
588,305	154,18
588,654	233,76
589,003	107,37
589,353	203,33
589,702	156,52
590,051	189,29
590,4	130,78
590,749	172,91
591,098	154,18
591,447	126,1
591,796	128,44
592,145	112,05
592,494	212,7
592,843	114,39
593,192	158,86
593,54	231,42
593,889	135,46
594,238	69,92
594,586	126,1
594,935	135,46
595,283	142,48
595,632	126,1
595,98	58,22
596,329	119,07
596,677	154,18
597,025	112,05
597,374	165,89
597,722	133,12
598,07	79,29
598,418	88,65
598,766	130,78
599,114	196,31
599,462	158,86
599,81	112,05
600,158	210,36
600,506	133,12
600,854	175,25
601,201	151,84
601,549	140,14
601,897	98,01
602,244	179,93
602,592	135,46
602,939	154,18
603,287	189,29
603,634	100,35
603,982	128,44
604,329	137,8
604,676	100,35
605,024	140,14
605,371	198,65
605,718	128,44
606,065	107,37
606,412	158,86
606,759	112,05
607,106	198,65
607,453	86,31
607,8	90,99
608,147	130,78
608,494	121,42
608,841	147,16
609,187	109,71
609,534	133,12
609,881	23,11
610,227	165,89
610,574	128,44
610,92	114,39
611,267	573,14
611,613	179,93
611,96	137,8
612,306	65,24
612,652	156,52
612,999	149,5
613,345	140,14
613,691	74,6
614,037	126,1
614,383	123,76
614,729	165,89
615,075	116,73
615,421	175,25
615,767	53,54
616,113	112,05
616,459	137,8
616,804	210,36
617,15	144,82
617,496	154,18
617,841	182,27
618,187	142,48
618,533	149,5
618,878	116,73
619,223	147,16
619,569	147,16
619,914	154,18
620,26	168,23
620,605	184,61
620,95	79,29
621,295	95,67
621,64	177,59
621,985	137,8
622,33	107,37
622,675	147,16
623,02	193,97
623,365	130,78
623,71	95,67
624,055	100,35
624,4	226,74
624,744	133,12
625,089	128,44
625,434	123,76
625,778	193,97
626,123	165,89
626,467	137,8
626,812	83,97
627,156	133,12
627,501	156,52
627,845	100,35
628,189	32,47
628,533	165,89
628,878	126,1
629,222	217,38
629,566	179,93
629,91	208,02
630,254	126,1
630,598	168,23
630,942	67,58
631,286	210,36
631,63	240,78
631,973	219,72
632,317	133,12
632,661	130,78
633,004	163,54
633,348	76,95
633,692	72,26
634,035	112,05
634,379	182,27
634,722	165,89
635,065	198,65
635,409	170,57
635,752	243,12
636,095	69,92
636,438	161,2
636,782	243,12
637,125	119,07
637,468	161,2
637,811	144,82
638,154	116,73
638,497	158,86
638,84	88,65
639,182	112,05
639,525	158,86
639,868	123,76
640,211	133,12
640,553	149,5
640,896	116,73
641,239	123,76
641,581	72,26
641,924	69,92
642,266	175,25
642,608	161,2
642,951	170,57
643,293	147,16
643,635	112,05
643,978	222,06
644,32	156,52
644,662	151,84
645,004	114,39
645,346	186,95
645,688	184,61
646,03	154,18
646,372	161,2
646,714	112,05
647,055	179,93
647,397	184,61
647,739	165,89
648,081	177,59
648,422	137,8
648,764	93,33
649,105	98,01
649,447	193,97
649,788	119,07
650,13	88,65
650,471	81,63
650,812	83,97
651,153	182,27
651,495	105,03
651,836	119,07
652,177	149,5
652,518	212,7
652,859	229,08
653,2	193,97
653,541	67,58
653,882	90,99
654,223	44,18
654,564	149,5
654,904	128,44
655,245	158,86
655,586	55,88
655,926	58,22
656,267	90,99
656,607	229,08
656,948	135,46
657,288	154,18
657,629	175,25
657,969	154,18
658,309	158,86
658,65	215,04
658,99	76,95
659,33	137,8
659,67	198,65
660,01	163,54
660,35	140,14
660,69	100,35
661,03	90,99
661,37	151,84
661,71	149,5
662,05	177,59
662,39	140,14
662,729	142,48
663,069	161,2
663,409	172,91
663,748	161,2
664,088	109,71
664,427	177,59
664,767	172,91
665,106	175,25
665,445	90,99
665,785	149,5
666,124	215,04
666,463	179,93
666,802	172,91
667,142	193,97
667,481	170,57
667,82	165,89
668,159	123,76
668,498	102,69
668,837	165,89
669,175	182,27
669,514	133,12
669,853	172,91
670,192	100,35
670,53	158,86
670,869	126,1
671,208	154,18
671,546	130,78
671,885	109,71
672,223	107,37
672,561	147,16
672,9	116,73
673,238	189,29
673,576	116,73
673,915	154,18
674,253	109,71
674,591	90,99
674,929	102,69
675,267	177,59
675,605	154,18
675,943	163,54
676,281	177,59
676,619	165,89
676,956	182,27
677,294	133,12
677,632	126,1
677,97	55,88
678,307	151,84
678,645	93,33
678,982	137,8
679,32	116,73
679,657	121,42
679,995	116,73
680,332	86,31
680,669	170,57
681,006	189,29
681,344	154,18
681,681	219,72
682,018	74,6
682,355	67,58
682,692	135,46
683,029	205,67
683,366	161,2
683,703	53,54
684,04	147,16
684,376	191,63
684,713	128,44
685,05	62,9
685,387	144,82
685,723	137,8
686,06	128,44
686,396	140,14
686,733	147,16
687,069	107,37
687,406	121,42
687,742	156,52
688,078	142,48
688,414	205,67
688,751	175,25
689,087	156,52
689,423	184,61
689,759	119,07
690,095	151,84
690,431	172,91
690,767	128,44
691,103	222,06
691,439	165,89
691,774	189,29
692,11	154,18
692,446	154,18
692,781	168,23
693,117	116,73
693,453	140,14
693,788	151,84
694,124	142,48
694,459	65,24
694,794	156,52
695,13	189,29
695,465	144,82
695,8	123,76
696,135	149,5
696,471	142,48
696,806	72,26
697,141	172,91
697,476	135,46
697,811	140,14
698,146	121,42
698,48	168,23
698,815	114,39
699,15	126,1
699,485	165,89
699,819	240,78
700,154	72,26
700,489	161,2
700,823	175,25
701,158	198,65
701,492	212,7
701,826	126,1
702,161	250,14
702,495	112,05
702,829	109,71
703,164	140,14
703,498	168,23
703,832	51,2
704,166	170,57
704,5	123,76
704,834	198,65
705,168	114,39
705,502	144,82
705,836	163,54
706,169	240,78
706,503	105,03
706,837	137,8
707,171	198,65
707,504	135,46
707,838	126,1
708,171	184,61
708,505	137,8
708,838	133,12
709,172	191,63
709,505	226,74
709,838	147,16
710,171	212,7
710,505	196,31
710,838	163,54
711,171	147,16
711,504	144,82
711,837	177,59
712,17	175,25
712,503	151,84
712,836	217,38
713,169	144,82
713,501	172,91
713,834	149,5
714,167	65,24
714,499	243,12
714,832	233,76
715,165	177,59
715,497	222,06
715,83	163,54
716,162	186,95
716,494	200,99
716,827	264,19
717,159	102,69
717,491	149,5
717,823	189,29
718,155	229,08
718,488	114,39
718,82	151,84
719,152	191,63
719,484	119,07
719,815	184,61
720,147	88,65
720,479	203,33
720,811	161,2
721,143	177,59
721,474	161,2
721,806	163,54
722,137	154,18
722,469	161,2
722,8	184,61
723,132	161,2
723,463	222,06
723,795	189,29
724,126	168,23
724,457	226,74
724,788	250,14
725,119	112,05
725,451	231,42
725,782	130,78
726,113	140,14
726,444	156,52
726,775	112,05
727,105	175,25
727,436	90,99
727,767	48,86
728,098	163,54
728,428	158,86
728,759	149,5
729,09	219,72
729,42	161,2
729,751	107,37
730,081	177,59
730,412	189,29
730,742	172,91
731,072	147,16
731,403	144,82
731,733	215,04
732,063	156,52
732,393	257,17
732,723	196,31
733,053	100,35
733,383	121,42
733,713	156,52
734,043	69,92
734,373	137,8
734,703	130,78
735,032	222,06
735,362	147,16
735,692	149,5
736,021	238,44
736,351	170,57
736,68	147,16
737,01	147,16
737,339	126,1
737,669	130,78
737,998	154,18
738,327	133,12
738,657	116,73
738,986	182,27
739,315	168,23
739,644	184,61
739,973	215,04
740,302	189,29
740,631	250,14
740,96	154,18
741,289	154,18
741,618	177,59
741,946	182,27
742,275	83,97
742,604	191,63
742,932	154,18
743,261	168,23
743,589	168,23
743,918	151,84
744,246	109,71
744,575	119,07
744,903	163,54
745,231	205,67
745,56	165,89
745,888	154,18
746,216	114,39
746,544	184,61
746,872	186,95
747,2	147,16
747,528	233,76
747,856	168,23
748,184	161,2
748,512	222,06
748,84	219,72
749,167	140,14
749,495	116,73
749,823	198,65
750,15	184,61
750,478	229,08
750,805	210,36
751,133	175,25
751,46	119,07
751,788	175,25
752,115	137,8
752,442	177,59
752,769	172,91
753,096	179,93
753,424	215,04
753,751	154,18
754,078	165,89
754,405	151,84
754,732	151,84
755,059	184,61
755,385	163,54
755,712	133,12
756,039	149,5
756,366	179,93
756,692	147,16
757,019	200,99
757,345	142,48
757,672	184,61
757,998	156,52
758,325	186,95
758,651	205,67
758,977	154,18
759,304	200,99
759,63	179,93
759,956	147,16
760,282	177,59
760,608	170,57
760,934	161,2
761,26	168,23
761,586	156,52
761,912	161,2
762,238	123,76
762,564	158,86
762,89	140,14
763,215	135,46
763,541	240,78
763,867	140,14
764,192	215,04
764,518	158,86
764,843	154,18
765,169	177,59
765,494	175,25
765,819	161,2
766,145	200,99
766,47	240,78
766,795	179,93
767,12	112,05
767,445	172,91
767,77	158,86
768,095	177,59
768,42	177,59
768,745	114,39
769,07	191,63
769,395	161,2
769,719	151,84
770,044	126,1
770,369	210,36
770,693	154,18
771,018	147,16
771,343	151,84
771,667	142,48
771,991	121,42
772,316	208,02
772,64	186,95
772,964	186,95
773,289	182,27
773,613	140,14
773,937	168,23
774,261	179,93
774,585	233,76
774,909	156,52
775,233	107,37
775,557	119,07
775,881	229,08
776,205	133,12
776,528	247,8
776,852	140,14
777,176	271,21
777,499	100,35
777,823	191,63
778,146	149,5
778,47	208,02
778,793	142,48
779,117	189,29
779,44	130,78
779,763	163,54
