Data from USB2H080721_03-05-52-029.txt Node
Date: Tue May 16 03:05:52 BRT 2023
User: Quark
Spectrometer: USB2+H08072
Trigger mode: 4
Integration Time (sec): 1,000000E-1
Scans to average: 1
Electric dark correction enabled: true
Nonlinearity correction enabled: false
Boxcar width: 0
XAxis mode: Wavelengths
Number of Pixels in Spectrum: 2048
>>>>>Begin Spectral Data<<<<<
338,582	117,32
338,96	117,32
339,338	117,32
339,716	89,23
340,094	-13,75
340,472	75,19
340,85	42,42
341,228	35,4
341,606	40,08
341,984	-55,88
342,362	-34,82
342,74	-2,05
343,117	40,08
343,495	-112,05
343,873	51,78
344,25	-41,84
344,628	-9,07
345,005	-2,05
345,383	33,06
345,76	-37,16
346,138	-62,9
346,515	114,98
346,893	23,7
347,27	91,57
347,647	75,19
348,024	84,55
348,402	-4,39
348,779	51,78
349,156	65,83
349,533	91,57
349,91	98,6
350,287	129,02
350,664	96,25
351,041	89,23
351,417	96,25
351,794	89,23
352,171	138,38
352,548	203,92
352,925	129,02
353,301	131,36
353,678	133,7
354,054	112,64
354,431	133,7
354,807	143,07
355,184	147,75
355,56	187,54
355,937	215,62
356,313	215,62
356,689	206,26
357,066	157,11
357,442	203,92
357,818	112,64
358,194	208,6
358,57	140,72
358,946	213,28
359,322	140,72
359,698	112,64
360,074	192,22
360,45	114,98
360,826	213,28
361,202	86,89
361,577	129,02
361,953	89,23
362,329	147,75
362,705	119,66
363,08	138,38
363,456	187,54
363,831	129,02
364,207	147,75
364,582	171,15
364,958	138,38
365,333	105,62
365,708	77,53
366,084	236,69
366,459	166,47
366,834	98,6
367,209	98,6
367,584	187,54
367,959	173,49
368,334	147,75
368,709	112,64
369,084	154,77
369,459	159,45
369,834	159,45
370,209	136,04
370,584	122
370,959	133,7
371,333	171,15
371,708	159,45
372,083	175,83
372,457	122
372,832	147,75
373,206	129,02
373,581	201,58
373,955	145,41
374,33	140,72
374,704	103,28
375,078	131,36
375,453	161,79
375,827	154,77
376,201	112,64
376,575	126,68
376,949	129,02
377,323	138,38
377,697	182,85
378,071	131,36
378,445	150,09
378,819	129,02
379,193	131,36
379,567	122
379,941	154,77
380,315	72,85
380,688	173,49
381,062	150,09
381,436	201,58
381,809	189,88
382,183	192,22
382,556	122
382,93	150,09
383,303	173,49
383,676	194,56
384,05	246,05
384,423	131,36
384,796	136,04
385,17	220,3
385,543	159,45
385,916	154,77
386,289	129,02
386,662	159,45
387,035	100,94
387,408	136,04
387,781	114,98
388,154	98,6
388,527	133,7
388,9	185,19
389,272	154,77
389,645	117,32
390,018	96,25
390,39	110,3
390,763	166,47
391,136	154,77
391,508	119,66
391,881	201,58
392,253	112,64
392,626	119,66
392,998	178,17
393,37	161,79
393,742	159,45
394,115	178,17
394,487	187,54
394,859	189,88
395,231	86,89
395,603	178,17
395,975	143,07
396,347	42,42
396,719	161,79
397,091	154,77
397,463	157,11
397,835	180,51
398,207	140,72
398,578	110,3
398,95	192,22
399,322	117,32
399,693	133,7
400,065	129,02
400,437	98,6
400,808	126,68
401,18	150,09
401,551	234,35
401,922	150,09
402,294	168,81
402,665	136,04
403,036	133,7
403,408	110,3
403,779	107,96
404,15	140,72
404,521	189,88
404,892	122
405,263	152,43
405,634	150,09
406,005	152,43
406,376	140,72
406,747	143,07
407,118	138,38
407,488	154,77
407,859	164,13
408,23	129,02
408,6	143,07
408,971	63,49
409,342	182,85
409,712	93,91
410,083	203,92
410,453	166,47
410,823	222,64
411,194	114,98
411,564	107,96
411,934	89,23
412,305	28,38
412,675	175,83
413,045	112,64
413,415	150,09
413,785	159,45
414,155	131,36
414,525	164,13
414,895	175,83
415,265	171,15
415,635	157,11
416,005	168,81
416,375	152,43
416,744	110,3
417,114	159,45
417,484	154,77
417,853	107,96
418,223	133,7
418,592	133,7
418,962	107,96
419,331	185,19
419,701	224,98
420,07	178,17
420,439	166,47
420,809	145,41
421,178	150,09
421,547	173,49
421,916	194,56
422,285	159,45
422,655	164,13
423,024	159,45
423,393	79,87
423,762	168,81
424,13	133,7
424,499	98,6
424,868	96,25
425,237	138,38
425,606	215,62
425,974	175,83
426,343	114,98
426,712	166,47
427,08	159,45
427,449	175,83
427,817	93,91
428,186	178,17
428,554	157,11
428,923	182,85
429,291	131,36
429,659	147,75
430,028	157,11
430,396	40,08
430,764	96,25
431,132	131,36
431,5	222,64
431,868	283,5
432,236	187,54
432,604	175,83
432,972	159,45
433,34	136,04
433,708	140,72
434,076	93,91
434,443	180,51
434,811	192,22
435,179	140,72
435,546	122
435,914	140,72
436,282	119,66
436,649	161,79
437,017	152,43
437,384	56,47
437,751	107,96
438,119	138,38
438,486	147,75
438,853	131,36
439,221	213,28
439,588	117,32
439,955	185,19
440,322	103,28
440,689	150,09
441,056	201,58
441,423	161,79
441,79	117,32
442,157	124,34
442,524	117,32
442,89	171,15
443,257	98,6
443,624	110,3
443,991	103,28
444,357	145,41
444,724	107,96
445,09	161,79
445,457	164,13
445,823	105,62
446,19	72,85
446,556	201,58
446,923	91,57
447,289	136,04
447,655	145,41
448,021	138,38
448,387	122
448,754	44,76
449,12	96,25
449,486	145,41
449,852	173,49
450,218	206,26
450,584	140,72
450,95	103,28
451,315	274,14
451,681	178,17
452,047	157,11
452,413	131,36
452,778	79,87
453,144	138,38
453,51	159,45
453,875	157,11
454,241	105,62
454,606	154,77
454,972	187,54
455,337	215,62
455,702	61,15
456,068	91,57
456,433	166,47
456,798	145,41
457,163	168,81
457,528	119,66
457,893	79,87
458,259	182,85
458,624	185,19
458,989	168,81
459,353	103,28
459,718	131,36
460,083	159,45
460,448	180,51
460,813	140,72
461,177	131,36
461,542	346,69
461,907	215,62
462,271	241,37
462,636	136,04
463	154,77
463,365	194,56
463,729	86,89
464,094	215,62
464,458	119,66
464,822	171,15
465,187	175,83
465,551	161,79
465,915	107,96
466,279	180,51
466,643	93,91
467,007	93,91
467,371	154,77
467,735	220,3
468,099	154,77
468,463	159,45
468,827	122
469,191	189,88
469,554	129,02
469,918	110,3
470,282	150,09
470,645	154,77
471,009	159,45
471,372	164,13
471,736	145,41
472,099	145,41
472,463	119,66
472,826	185,19
473,189	182,85
473,553	131,36
473,916	126,68
474,279	131,36
474,642	164,13
475,005	131,36
475,369	196,9
475,732	173,49
476,095	173,49
476,458	131,36
476,82	51,78
477,183	182,85
477,546	189,88
477,909	164,13
478,272	187,54
478,634	138,38
478,997	75,19
479,36	203,92
479,722	129,02
480,085	192,22
480,447	171,15
480,81	147,75
481,172	175,83
481,534	260,09
481,897	164,13
482,259	105,62
482,621	150,09
482,983	164,13
483,346	189,88
483,708	133,7
484,07	96,25
484,432	173,49
484,794	241,37
485,156	194,56
485,518	140,72
485,879	154,77
486,241	201,58
486,603	138,38
486,965	150,09
487,326	96,25
487,688	117,32
488,05	206,26
488,411	236,69
488,773	98,6
489,134	215,62
489,496	161,79
489,857	168,81
490,218	150,09
490,58	194,56
490,941	166,47
491,302	143,07
491,663	227,32
492,024	154,77
492,385	196,9
492,746	257,75
493,107	129,02
493,468	150,09
493,829	196,9
494,19	215,62
494,551	129,02
494,912	150,09
495,273	131,36
495,633	119,66
495,994	143,07
496,355	122
496,715	161,79
497,076	203,92
497,436	185,19
497,797	154,77
498,157	86,89
498,517	161,79
498,878	79,87
499,238	100,94
499,598	152,43
499,958	164,13
500,319	100,94
500,679	166,47
501,039	159,45
501,399	152,43
501,759	166,47
502,119	86,89
502,479	122
502,838	192,22
503,198	178,17
503,558	103,28
503,918	196,9
504,277	77,53
504,637	140,72
504,997	110,3
505,356	220,3
505,716	96,25
506,075	131,36
506,435	253,07
506,794	131,36
507,153	154,77
507,513	150,09
507,872	143,07
508,231	93,91
508,59	122
508,949	187,54
509,308	145,41
509,668	150,09
510,027	107,96
510,385	124,34
510,744	166,47
511,103	166,47
511,462	178,17
511,821	194,56
512,18	173,49
512,538	159,45
512,897	208,6
513,256	129,02
513,614	114,98
513,973	75,19
514,331	96,25
514,69	157,11
515,048	143,07
515,406	159,45
515,765	166,47
516,123	100,94
516,481	173,49
516,839	133,7
517,197	133,7
517,556	114,98
517,914	133,7
518,272	98,6
518,63	178,17
518,988	138,38
519,345	131,36
519,703	189,88
520,061	143,07
520,419	133,7
520,777	65,83
521,134	70,51
521,492	178,17
521,849	133,7
522,207	154,77
522,564	201,58
522,922	61,15
523,279	152,43
523,637	84,55
523,994	136,04
524,351	217,96
524,709	138,38
525,066	189,88
525,423	143,07
525,78	187,54
526,137	168,81
526,494	105,62
526,851	75,19
527,208	206,26
527,565	196,9
527,922	166,47
528,279	131,36
528,635	157,11
528,992	164,13
529,349	164,13
529,705	77,53
530,062	152,43
530,419	129,02
530,775	175,83
531,131	93,91
531,488	91,57
531,844	189,88
532,201	227,32
532,557	178,17
532,913	168,81
533,269	119,66
533,626	166,47
533,982	192,22
534,338	150,09
534,694	217,96
535,05	166,47
535,406	157,11
535,762	89,23
536,117	159,45
536,473	131,36
536,829	159,45
537,185	140,72
537,54	70,51
537,896	133,7
538,252	173,49
538,607	192,22
538,963	124,34
539,318	203,92
539,674	126,68
540,029	129,02
540,384	129,02
540,74	114,98
541,095	199,24
541,45	138,38
541,805	196,9
542,16	126,68
542,516	91,57
542,871	96,25
543,226	119,66
543,581	129,02
543,935	105,62
544,29	194,56
544,645	180,51
545	82,21
545,355	133,7
545,709	171,15
546,064	133,7
546,419	100,94
546,773	112,64
547,128	152,43
547,482	192,22
547,837	185,19
548,191	98,6
548,545	98,6
548,9	210,94
549,254	114,98
549,608	150,09
549,962	182,85
550,316	185,19
550,67	103,28
551,024	164,13
551,378	203,92
551,732	122
552,086	140,72
552,44	112,64
552,794	150,09
553,148	257,75
553,501	173,49
553,855	208,6
554,209	236,69
554,562	166,47
554,916	147,75
555,27	210,94
555,623	96,25
555,976	147,75
556,33	189,88
556,683	143,07
557,036	189,88
557,39	168,81
557,743	86,89
558,096	119,66
558,449	140,72
558,802	91,57
559,155	222,64
559,508	194,56
559,861	136,04
560,214	152,43
560,567	157,11
560,92	136,04
561,273	131,36
561,625	131,36
561,978	222,64
562,331	138,38
562,683	168,81
563,036	175,83
563,388	168,81
563,741	217,96
564,093	199,24
564,446	173,49
564,798	232,01
565,15	192,22
565,503	159,45
565,855	154,77
566,207	161,79
566,559	189,88
566,911	248,39
567,263	203,92
567,615	89,23
567,967	112,64
568,319	96,25
568,671	154,77
569,023	112,64
569,374	147,75
569,726	166,47
570,078	119,66
570,429	133,7
570,781	178,17
571,133	215,62
571,484	138,38
571,836	136,04
572,187	206,26
572,538	140,72
572,89	206,26
573,241	129,02
573,592	175,83
573,943	180,51
574,295	126,68
574,646	126,68
574,997	98,6
575,348	63,49
575,699	171,15
576,05	189,88
576,401	173,49
576,751	168,81
577,102	175,83
577,453	122
577,804	100,94
578,154	189,88
578,505	124,34
578,856	182,85
579,206	201,58
579,557	105,62
579,907	210,94
580,258	161,79
580,608	189,88
580,958	264,77
581,308	110,3
581,659	136,04
582,009	203,92
582,359	194,56
582,709	110,3
583,059	224,98
583,409	248,39
583,759	208,6
584,109	140,72
584,459	93,91
584,809	187,54
585,159	150,09
585,508	206,26
585,858	185,19
586,208	161,79
586,557	171,15
586,907	107,96
587,256	159,45
587,606	175,83
587,955	171,15
588,305	49,44
588,654	168,81
589,003	210,94
589,353	185,19
589,702	119,66
590,051	161,79
590,4	187,54
590,749	210,94
591,098	129,02
591,447	103,28
591,796	110,3
592,145	241,37
592,494	180,51
592,843	100,94
593,192	154,77
593,54	140,72
593,889	143,07
594,238	157,11
594,586	166,47
594,935	180,51
595,283	203,92
595,632	129,02
595,98	180,51
596,329	161,79
596,677	171,15
597,025	140,72
597,374	215,62
597,722	199,24
598,07	199,24
598,418	203,92
598,766	129,02
599,114	180,51
599,462	159,45
599,81	175,83
600,158	114,98
600,506	152,43
600,854	180,51
601,201	89,23
601,549	103,28
601,897	154,77
602,244	133,7
602,592	147,75
602,939	152,43
603,287	208,6
603,634	194,56
603,982	180,51
604,329	124,34
604,676	124,34
605,024	114,98
605,371	215,62
605,718	150,09
606,065	126,68
606,412	131,36
606,759	122
607,106	194,56
607,453	187,54
607,8	180,51
608,147	196,9
608,494	145,41
608,841	217,96
609,187	131,36
609,534	182,85
609,881	180,51
610,227	131,36
610,574	182,85
610,92	126,68
611,267	576,06
611,613	98,6
611,96	250,73
612,306	140,72
612,652	201,58
612,999	164,13
613,345	122
613,691	187,54
614,037	185,19
614,383	89,23
614,729	180,51
615,075	107,96
615,421	189,88
615,767	161,79
616,113	196,9
616,459	182,85
616,804	159,45
617,15	182,85
617,496	131,36
617,841	136,04
618,187	136,04
618,533	185,19
618,878	136,04
619,223	145,41
619,569	136,04
619,914	166,47
620,26	159,45
620,605	140,72
620,95	122
621,295	140,72
621,64	189,88
621,985	147,75
622,33	171,15
622,675	124,34
623,02	168,81
623,365	136,04
623,71	192,22
624,055	175,83
624,4	96,25
624,744	124,34
625,089	112,64
625,434	180,51
625,778	110,3
626,123	208,6
626,467	164,13
626,812	208,6
627,156	143,07
627,501	157,11
627,845	145,41
628,189	136,04
628,533	180,51
628,878	194,56
629,222	122
629,566	143,07
629,91	196,9
630,254	161,79
630,598	117,32
630,942	131,36
631,286	124,34
631,63	215,62
631,973	131,36
632,317	154,77
632,661	138,38
633,004	150,09
633,348	117,32
633,692	105,62
634,035	168,81
634,379	199,24
634,722	126,68
635,065	75,19
635,409	180,51
635,752	126,68
636,095	185,19
636,438	196,9
636,782	175,83
637,125	154,77
637,468	171,15
637,811	143,07
638,154	126,68
638,497	210,94
638,84	138,38
639,182	117,32
639,525	213,28
639,868	110,3
640,211	161,79
640,553	117,32
640,896	175,83
641,239	105,62
641,581	117,32
641,924	112,64
642,266	189,88
642,608	187,54
642,951	122
643,293	154,77
643,635	152,43
643,978	129,02
644,32	175,83
644,662	136,04
645,004	136,04
645,346	189,88
645,688	168,81
646,03	124,34
646,372	136,04
646,714	199,24
647,055	194,56
647,397	166,47
647,739	105,62
648,081	185,19
648,422	208,6
648,764	136,04
649,105	131,36
649,447	224,98
649,788	236,69
650,13	98,6
650,471	129,02
650,812	180,51
651,153	131,36
651,495	105,62
651,836	147,75
652,177	89,23
652,518	175,83
652,859	117,32
653,2	157,11
653,541	129,02
653,882	173,49
654,223	133,7
654,564	150,09
654,904	157,11
655,245	154,77
655,586	68,17
655,926	199,24
656,267	147,75
656,607	147,75
656,948	65,83
657,288	164,13
657,629	98,6
657,969	168,81
658,309	185,19
658,65	140,72
658,99	143,07
659,33	107,96
659,67	185,19
660,01	182,85
660,35	100,94
660,69	126,68
661,03	206,26
661,37	154,77
661,71	143,07
662,05	122
662,39	150,09
662,729	171,15
663,069	208,6
663,409	140,72
663,748	147,75
664,088	203,92
664,427	126,68
664,767	126,68
665,106	157,11
665,445	145,41
665,785	173,49
666,124	281,16
666,463	166,47
666,802	98,6
667,142	171,15
667,481	161,79
667,82	168,81
668,159	147,75
668,498	159,45
668,837	173,49
669,175	138,38
669,514	129,02
669,853	147,75
670,192	154,77
670,53	182,85
670,869	178,17
671,208	215,62
671,546	192,22
671,885	147,75
672,223	182,85
672,561	180,51
672,9	91,57
673,238	224,98
673,576	129,02
673,915	175,83
674,253	152,43
674,591	192,22
674,929	133,7
675,267	138,38
675,605	119,66
675,943	201,58
676,281	126,68
676,619	126,68
676,956	147,75
677,294	157,11
677,632	145,41
677,97	152,43
678,307	164,13
678,645	126,68
678,982	194,56
679,32	168,81
679,657	124,34
679,995	196,9
680,332	178,17
680,669	182,85
681,006	182,85
681,344	164,13
681,681	103,28
682,018	138,38
682,355	96,25
682,692	189,88
683,029	147,75
683,366	133,7
683,703	178,17
684,04	164,13
684,376	117,32
684,713	147,75
685,05	75,19
685,387	171,15
685,723	140,72
686,06	152,43
686,396	185,19
686,733	175,83
687,069	180,51
687,406	86,89
687,742	140,72
688,078	196,9
688,414	224,98
688,751	86,89
689,087	213,28
689,423	173,49
689,759	182,85
690,095	112,64
690,431	150,09
690,767	182,85
691,103	110,3
691,439	79,87
691,774	119,66
692,11	154,77
692,446	72,85
692,781	203,92
693,117	93,91
693,453	210,94
693,788	140,72
694,124	112,64
694,459	136,04
694,794	129,02
695,13	187,54
695,465	143,07
695,8	107,96
696,135	154,77
696,471	213,28
696,806	117,32
697,141	147,75
697,476	175,83
697,811	239,03
698,146	152,43
698,48	192,22
698,815	117,32
699,15	208,6
699,485	107,96
699,819	143,07
700,154	194,56
700,489	192,22
700,823	185,19
701,158	122
701,492	154,77
701,826	114,98
702,161	222,64
702,495	166,47
702,829	180,51
703,164	175,83
703,498	175,83
703,832	150,09
704,166	126,68
704,5	154,77
704,834	203,92
705,168	129,02
705,502	171,15
705,836	129,02
706,169	187,54
706,503	154,77
706,837	140,72
707,171	192,22
707,504	171,15
707,838	140,72
708,171	185,19
708,505	161,79
708,838	161,79
709,172	112,64
709,505	166,47
709,838	126,68
710,171	126,68
710,505	136,04
710,838	159,45
711,171	89,23
711,504	222,64
711,837	199,24
712,17	136,04
712,503	241,37
712,836	253,07
713,169	138,38
713,501	98,6
713,834	152,43
714,167	164,13
714,499	234,35
714,832	110,3
715,165	119,66
715,497	185,19
715,83	159,45
716,162	217,96
716,494	147,75
716,827	103,28
717,159	199,24
717,491	168,81
717,823	194,56
718,155	138,38
718,488	159,45
718,82	105,62
719,152	138,38
719,484	208,6
719,815	147,75
720,147	178,17
720,479	248,39
720,811	199,24
721,143	93,91
721,474	161,79
721,806	143,07
722,137	136,04
722,469	210,94
722,8	129,02
723,132	138,38
723,463	171,15
723,795	161,79
724,126	143,07
724,457	145,41
724,788	203,92
725,119	150,09
725,451	131,36
725,782	152,43
726,113	215,62
726,444	189,88
726,775	222,64
727,105	150,09
727,436	180,51
727,767	154,77
728,098	194,56
728,428	147,75
728,759	220,3
729,09	159,45
729,42	180,51
729,751	145,41
730,081	136,04
730,412	243,71
730,742	136,04
731,072	210,94
731,403	182,85
731,733	189,88
732,063	182,85
732,393	201,58
732,723	150,09
733,053	79,87
733,383	159,45
733,713	147,75
734,043	175,83
734,373	182,85
734,703	208,6
735,032	117,32
735,362	182,85
735,692	171,15
736,021	122
736,351	164,13
736,68	171,15
737,01	150,09
737,339	206,26
737,669	157,11
737,998	175,83
738,327	136,04
738,657	187,54
738,986	187,54
739,315	166,47
739,644	140,72
739,973	185,19
740,302	131,36
740,631	206,26
740,96	105,62
741,289	138,38
741,618	253,07
741,946	168,81
742,275	215,62
742,604	124,34
742,932	189,88
743,261	199,24
743,589	185,19
743,918	175,83
744,246	178,17
744,575	182,85
744,903	154,77
745,231	173,49
745,56	180,51
745,888	175,83
746,216	147,75
746,544	154,77
746,872	143,07
747,2	199,24
747,528	175,83
747,856	129,02
748,184	175,83
748,512	178,17
748,84	133,7
749,167	131,36
749,495	229,67
749,823	210,94
750,15	166,47
750,478	140,72
750,805	178,17
751,133	143,07
751,46	133,7
751,788	114,98
752,115	157,11
752,442	189,88
752,769	161,79
753,096	229,67
753,424	122
753,751	154,77
754,078	138,38
754,405	154,77
754,732	171,15
755,059	180,51
755,385	168,81
755,712	166,47
756,039	131,36
756,366	232,01
756,692	131,36
757,019	241,37
757,345	199,24
757,672	143,07
757,998	159,45
758,325	166,47
758,651	168,81
758,977	112,64
759,304	187,54
759,63	126,68
759,956	147,75
760,282	210,94
760,608	196,9
760,934	220,3
761,26	126,68
761,586	105,62
761,912	119,66
762,238	119,66
762,564	157,11
762,89	189,88
763,215	217,96
763,541	150,09
763,867	168,81
764,192	119,66
764,518	185,19
764,843	112,64
765,169	138,38
765,494	126,68
765,819	110,3
766,145	147,75
766,47	229,67
766,795	196,9
767,12	154,77
767,445	232,01
767,77	262,43
768,095	175,83
768,42	89,23
768,745	164,13
769,07	161,79
769,395	164,13
769,719	131,36
770,044	75,19
770,369	220,3
770,693	105,62
771,018	147,75
771,343	154,77
771,667	91,57
771,991	147,75
772,316	208,6
772,64	185,19
772,964	140,72
773,289	136,04
773,613	150,09
773,937	140,72
774,261	168,81
774,585	126,68
774,909	100,94
775,233	96,25
775,557	182,85
775,881	178,17
776,205	147,75
776,528	220,3
776,852	136,04
777,176	114,98
777,499	138,38
777,823	154,77
778,146	182,85
778,47	86,89
778,793	173,49
779,117	159,45
