Data from USB2H080721_03-05-47-529.txt Node
Date: Tue May 16 03:05:47 BRT 2023
User: Quark
Spectrometer: USB2+H08072
Trigger mode: 4
Integration Time (sec): 1,000000E-1
Scans to average: 1
Electric dark correction enabled: true
Nonlinearity correction enabled: false
Boxcar width: 0
XAxis mode: Wavelengths
Number of Pixels in Spectrum: 2048
>>>>>Begin Spectral Data<<<<<
338,582	110,44
338,96	110,44
339,338	110,44
339,716	94,06
340,094	37,89
340,472	-1,9
340,85	-46,37
341,228	-58,07
341,606	-51,05
341,984	-11,26
342,362	84,7
342,74	-18,29
343,117	2,78
343,495	5,12
343,873	23,84
344,25	35,55
344,628	-27,65
345,005	-6,58
345,383	-83,82
345,76	-8,92
346,138	37,89
346,515	122,15
346,893	47,25
347,27	42,57
347,647	152,57
348,024	374,92
348,402	491,95
348,779	463,86
349,156	484,93
349,533	573,87
349,91	594,93
350,287	604,3
350,664	529,4
351,041	686,22
351,417	803,24
351,794	777,5
352,171	920,27
352,548	843,03
352,925	714,3
353,301	625,36
353,678	480,25
354,054	391,31
354,431	419,39
354,807	477,91
355,184	475,57
355,56	449,82
355,937	527,06
356,313	648,77
356,689	651,11
357,066	714,3
357,442	686,22
357,818	627,7
358,194	515,36
358,57	543,44
358,946	510,68
359,322	548,12
359,698	534,08
360,074	632,38
360,45	630,04
360,826	627,7
361,202	754,09
361,577	690,9
361,953	662,81
362,329	765,79
362,705	644,09
363,08	494,29
363,456	498,97
363,831	454,5
364,207	494,29
364,582	487,27
364,958	447,48
365,333	452,16
365,708	400,67
366,084	466,21
366,459	452,16
366,834	480,25
367,209	424,08
367,584	543,44
367,959	529,4
368,334	543,44
368,709	489,61
369,084	496,63
369,459	428,76
369,834	417,05
370,209	484,93
370,584	517,7
370,959	419,39
371,333	482,59
371,708	466,21
372,083	468,55
372,457	517,7
372,832	522,38
373,206	468,55
373,581	510,68
373,955	578,55
374,33	555,15
374,704	480,25
375,078	447,48
375,453	489,61
375,827	440,46
376,201	529,4
376,575	611,32
376,949	651,11
377,323	597,28
377,697	608,98
378,071	613,66
378,445	566,85
378,819	534,08
379,193	566,85
379,567	515,36
379,941	548,12
380,315	608,98
380,688	552,81
381,062	639,41
381,436	548,12
381,809	693,24
382,183	637,06
382,556	672,17
382,93	723,66
383,303	845,37
383,676	859,42
384,05	866,44
384,423	770,48
384,796	819,63
385,17	782,18
385,543	772,82
385,916	761,11
386,289	859,42
386,662	765,79
387,035	740,05
387,408	709,62
387,781	695,58
388,154	740,05
388,527	655,79
388,9	669,83
389,272	716,64
389,645	726
390,018	777,5
390,39	775,16
390,763	707,28
391,136	702,6
391,508	740,05
391,881	700,26
392,253	751,75
392,626	747,07
392,998	791,54
393,37	826,65
393,742	782,18
394,115	700,26
394,487	728,35
394,859	796,22
395,231	784,52
395,603	709,62
395,975	726
396,347	814,95
396,719	807,92
397,091	824,31
397,463	754,09
397,835	747,07
398,207	772,82
398,578	733,03
398,95	700,26
399,322	697,92
399,693	688,56
400,065	676,85
400,437	730,69
400,808	718,98
401,18	730,69
401,551	740,05
401,922	763,45
402,294	805,58
402,665	744,73
403,036	821,97
403,408	716,64
403,779	868,78
404,15	744,73
404,521	707,28
404,892	812,6
405,263	784,52
405,634	803,24
406,005	812,6
406,376	850,05
406,747	934,31
407,118	929,63
407,488	1002,19
407,859	1051,34
408,23	997,51
408,6	953,04
408,971	922,61
409,342	812,6
409,712	831,33
410,083	789,2
410,453	878,14
410,823	805,58
411,194	793,88
411,564	821,97
411,934	798,56
412,305	812,6
412,675	784,52
413,045	805,58
413,415	817,29
413,785	761,11
414,155	803,24
414,525	763,45
414,895	798,56
415,265	768,13
415,635	789,2
416,005	847,71
416,375	761,11
416,744	793,88
417,114	798,56
417,484	873,46
417,853	744,73
418,223	819,63
418,592	850,05
418,962	908,57
419,331	831,33
419,701	859,42
420,07	943,67
420,439	880,48
420,809	908,57
421,178	957,72
421,547	1025,59
421,916	1006,87
422,285	1137,94
422,655	974,1
423,024	969,42
423,393	1002,19
423,762	948,36
424,13	934,31
424,499	1002,19
424,868	1058,36
425,237	981,12
425,606	990,49
425,974	964,74
426,343	1039,64
426,712	1079,43
427,08	1114,53
427,449	1121,56
427,817	1159
428,186	1067,72
428,554	1039,64
428,923	1121,56
429,291	1095,81
429,659	1203,47
430,028	1116,87
430,396	1250,28
430,764	1173,05
431,132	1222,2
431,5	1271,35
431,868	1283,05
432,236	1407,1
432,604	1528,81
432,972	1559,24
433,34	1716,05
433,708	1915
434,076	2027,34
434,443	2216,93
434,811	2287,14
435,179	2380,76
435,546	2219,27
435,914	1982,87
436,282	1886,91
436,649	1896,27
437,017	1971,17
437,384	1954,79
437,751	1882,23
438,119	1922,02
438,486	1840,1
438,853	1746,48
439,221	1570,94
439,588	1711,37
439,955	1907,98
440,322	1788,61
440,689	1828,4
441,056	1725,41
441,423	1575,62
441,79	1711,37
442,157	1915
442,524	2174,8
442,89	2336,29
443,257	2326,93
443,624	2088,2
443,991	1828,4
444,357	1577,96
444,724	1404,76
445,09	1437,53
445,457	1474,98
445,823	1496,04
446,19	1582,64
446,556	1554,55
446,923	1690,31
447,289	1779,25
447,655	2076,49
448,021	2603,11
448,387	2851,21
448,754	2633,54
449,12	1870,53
449,486	1545,19
449,852	1498,38
450,218	1458,59
450,584	1505,4
450,95	1430,51
451,315	1430,51
451,681	1243,26
452,047	1245,6
452,413	1350,93
452,778	1402,42
453,144	1334,54
453,51	1460,93
453,875	1496,04
454,241	1680,94
454,606	1809,67
454,972	1971,17
455,337	2020,32
455,702	1858,82
456,068	1812,01
456,433	1709,03
456,798	1549,87
457,163	1498,38
457,528	1592
457,893	1687,97
458,259	2008,62
458,624	1973,51
458,989	2092,88
459,353	2273,1
459,718	2160,75
460,083	2055,43
460,448	2200,54
460,813	2685,03
461,177	3094,63
461,542	3022,07
461,907	2305,87
462,271	1952,45
462,636	1751,16
463	1676,26
463,365	1678,6
463,729	1828,4
464,094	1833,08
464,458	1893,93
464,822	1961,81
465,187	2060,11
465,551	2188,84
465,915	2167,77
466,279	2207,56
466,643	2062,45
467,007	1884,57
467,371	1776,91
467,735	1655,2
468,099	1751,16
468,463	1702,01
468,827	1793,29
469,191	1638,81
469,554	1826,06
469,918	1807,33
470,282	2008,62
470,645	2275,44
471,009	2252,03
471,372	2436,94
471,736	2839,51
472,099	2977,6
472,463	2947,17
472,826	2905,04
473,189	3319,32
473,553	3548,69
473,916	3434
474,279	3270,17
474,642	2575,03
475,005	2132,67
475,369	2235,65
475,732	2605,46
476,095	2816,1
476,458	2940,15
476,82	3204,63
477,183	3043,14
477,546	2647,58
477,909	2315,23
478,272	2256,72
478,634	2490,77
478,997	2783,34
479,36	2769,29
479,722	2912,07
480,085	3164,84
480,447	4112,76
480,81	5755,82
481,172	6394,78
481,534	5500,7
481,897	3845,94
482,259	3209,31
482,621	3288,89
482,983	3469,11
483,346	4037,86
483,708	4208,72
484,07	4194,68
484,432	4211,06
484,794	4653,42
485,156	5166
485,518	5496,02
485,879	5671,56
486,241	5371,97
486,603	4978,76
486,965	4775,13
487,326	5048,97
487,688	5098,13
488,05	6008,59
488,411	6942,47
488,773	6394,78
489,134	5123,87
489,496	4573,85
489,857	4442,78
490,218	4646,4
490,58	5088,76
490,941	5444,52
491,302	5374,31
491,663	5299,41
492,024	4920,24
492,385	4796,2
492,746	4515,33
493,107	4772,79
493,468	5088,76
493,829	5945,4
494,19	6125,62
494,551	5804,97
494,912	5051,31
495,273	4552,78
495,633	4419,37
495,994	4381,92
496,355	4611,29
496,715	4943,65
497,076	5339,2
497,436	5446,87
497,797	5533,47
498,157	5950,08
498,517	6764,59
498,878	7518,24
499,238	7354,4
499,598	7183,54
499,958	6600,75
500,319	6380,74
500,679	6340,95
501,039	7033,75
501,399	7473,77
501,759	8463,82
502,119	9116,83
502,479	9123,85
502,838	8779,79
503,198	8283,59
503,558	8658,08
503,918	9505,35
504,277	10486,04
504,637	10235,6
504,997	9584,93
505,356	9170,66
505,716	9275,98
506,075	9137,89
506,435	8864,05
506,794	7815,49
507,153	6940,13
507,513	6565,64
507,872	7361,42
508,231	9449,18
508,59	11712,48
508,949	11398,85
509,308	8871,07
509,668	6795,01
510,027	5907,95
510,385	5921,99
510,744	6062,43
511,103	5762,84
511,462	5135,57
511,821	4880,46
512,18	4779,81
512,538	4641,72
512,897	4821,94
513,256	5332,18
513,614	5755,82
513,973	6237,97
514,331	7160,14
514,69	7686,76
515,048	7630,59
515,406	6546,92
515,765	5819,01
516,123	5732,41
516,481	5868,16
516,839	6853,53
517,197	7988,69
517,556	8833,62
517,914	8866,39
518,272	8370,19
518,63	8817,24
518,988	8124,44
519,345	6146,69
519,703	4550,44
520,061	4178,3
520,419	3691,46
520,777	3473,79
521,134	3279,53
521,492	3352,09
521,849	3354,43
522,207	3466,77
522,564	3361,45
522,922	3298,25
523,279	3092,29
523,637	3155,48
523,994	3286,55
524,351	3087,61
524,709	3125,05
525,066	3068,88
525,423	3085,26
525,78	3075,9
526,137	3190,59
526,494	3216,33
526,851	3118,03
527,208	3352,09
527,565	3300,59
527,922	3324
528,279	3244,42
528,635	3190,59
528,992	3045,48
529,349	3085,26
529,705	3040,79
530,062	3019,73
530,419	2989,3
530,775	2944,83
531,131	2839,51
531,488	2905,04
531,844	2783,34
532,201	2855,89
532,557	2827,81
532,913	2993,98
533,269	2956,54
533,626	3043,14
533,982	3120,37
534,338	3099,31
534,694	3068,88
535,05	3038,45
535,406	3199,95
535,762	3183,57
536,117	3040,79
536,473	2956,54
536,829	3071,22
537,185	3129,74
537,54	3349,75
537,896	3270,17
538,252	3139,1
538,607	3136,76
538,963	3064,2
539,318	3012,71
539,674	3099,31
540,029	2996,32
540,384	2921,43
540,74	3071,22
541,095	3003,35
541,45	3195,27
541,805	2944,83
542,16	3026,75
542,516	3005,69
542,871	3068,88
543,226	3015,05
543,581	3085,26
543,935	3096,97
544,29	3176,55
544,645	3221,02
545	3307,62
545,355	3078,24
545,709	3003,35
546,064	3160,16
546,419	3012,71
546,773	3054,84
547,128	3354,43
547,482	3576,78
547,837	4037,86
548,191	4744,7
548,545	4662,79
548,9	4070,63
549,254	3452,73
549,608	3122,71
549,962	3047,82
550,316	3031,43
550,67	2951,85
551,024	3089,95
551,378	3204,63
551,732	3204,63
552,086	3092,29
552,44	3132,08
552,794	3286,55
553,148	3415,28
553,501	3534,65
553,855	3544,01
554,209	3436,35
554,562	3375,49
554,916	2984,62
555,27	2858,23
555,623	2589,07
555,976	2766,95
556,33	2825,47
556,683	2862,91
557,036	2867,6
557,39	2949,51
557,743	2902,7
558,096	2949,51
558,449	2968,24
558,802	3099,31
559,155	3071,22
559,508	3153,14
559,861	2902,7
560,214	2949,51
560,567	3071,22
560,92	3368,47
561,273	3295,91
561,625	2757,59
561,978	2706,1
562,331	2635,88
562,683	2755,25
563,036	2757,59
563,388	2827,81
563,741	2792,7
564,093	2610,14
564,446	2720,14
564,798	2715,46
565,15	2570,35
565,503	2507,15
565,855	2570,35
566,207	2603,11
566,559	2682,69
566,911	2682,69
567,263	2516,51
567,615	2570,35
567,967	2483,75
568,319	2516,51
568,671	2757,59
569,023	2708,44
569,374	2605,46
569,726	2614,82
570,078	2638,22
570,429	2560,98
570,781	2570,35
571,133	2607,8
571,484	2741,21
571,836	2708,44
572,187	2652,27
572,538	2476,73
572,89	2369,06
573,241	2195,86
573,592	2132,67
573,943	2139,69
574,295	2153,73
574,646	2156,07
574,997	2240,33
575,348	2212,25
575,699	2305,87
576,05	2301,19
576,401	2317,57
576,751	2233,31
577,102	2090,54
577,453	2102,24
577,804	2139,69
578,154	1952,45
578,505	1982,87
578,856	2064,79
579,206	2118,62
579,557	1971,17
579,907	2142,03
580,258	2083,52
580,608	2212,25
580,958	2116,28
581,308	2130,33
581,659	1966,49
582,009	1900,95
582,359	1893,93
582,709	1961,81
583,059	1985,21
583,409	1992,23
583,759	1812,01
584,109	1765,2
584,459	1709,03
584,809	1781,59
585,159	1814,35
585,508	1858,82
585,858	1912,66
586,208	1926,7
586,557	1833,08
586,907	1673,92
587,256	1807,33
587,606	1737,12
587,955	1730,09
588,305	1833,08
588,654	1971,17
589,003	2235,65
589,353	2277,78
589,702	2266,08
590,051	2184,16
590,4	1840,1
590,749	1709,03
591,098	1634,13
591,447	1563,92
591,796	1512,42
592,145	1505,4
592,494	1608,39
592,843	1568,6
593,192	1601,37
593,54	1552,21
593,889	1547,53
594,238	1421,14
594,586	1465,61
594,935	1577,96
595,283	1547,53
595,632	1575,62
595,98	1458,59
596,329	1507,74
596,677	1482
597,025	1482
597,374	1418,8
597,722	1456,25
598,07	1498,38
598,418	1575,62
598,766	1467,95
599,114	1559,24
599,462	1528,81
599,81	1432,85
600,158	1444,55
600,506	1425,83
600,854	1416,46
601,201	1479,66
601,549	1570,94
601,897	1418,8
602,244	1535,83
602,592	1451,57
602,939	1563,92
603,287	1584,98
603,634	1552,21
603,982	1577,96
604,329	1592
604,676	1496,04
605,024	1587,32
605,371	1603,71
605,718	1437,53
606,065	1430,51
606,412	1414,12
606,759	1409,44
607,106	1517,11
607,453	1418,8
607,8	1493,7
608,147	1449,23
608,494	1519,45
608,841	1556,9
609,187	1531,15
609,534	1559,24
609,881	1519,45
610,227	1374,33
610,574	1512,42
610,92	1659,88
611,267	2212,25
611,613	2060,11
611,96	1926,7
612,306	1723,07
612,652	1608,39
612,999	1554,55
613,345	1496,04
613,691	1477,32
614,037	1662,22
614,383	1680,94
614,729	1739,46
615,075	1727,75
615,421	1524,13
615,767	1491,36
616,113	1484,34
616,459	1533,49
616,804	1622,43
617,15	1746,48
617,496	1898,61
617,841	2053,09
618,187	1877,55
618,533	1648,18
618,878	1645,84
619,223	1458,59
619,569	1439,87
619,914	1418,8
620,26	1259,65
620,605	1292,41
620,95	1390,72
621,295	1177,73
621,64	1350,93
621,985	1273,69
622,33	1353,27
622,675	1327,52
623,02	1334,54
623,365	1437,53
623,71	1416,46
624,055	1458,59
624,4	1596,68
624,744	1615,41
625,089	1526,47
625,434	1362,63
625,778	1320,5
626,123	1329,86
626,467	1264,33
626,812	1231,56
627,156	1264,33
627,501	1144,96
627,845	1086,45
628,189	1226,88
628,533	1219,86
628,878	1159
629,222	1318,16
629,566	1243,26
629,91	1269,01
630,254	1311,14
630,598	1360,29
630,942	1367,31
631,286	1393,06
631,63	1510,08
631,973	1477,32
632,317	1423,48
632,661	1311,14
633,004	1404,76
633,348	1474,98
633,692	1482
634,035	1652,86
634,379	1849,46
634,722	1800,31
635,065	1875,21
635,409	1606,05
635,752	1360,29
636,095	1350,93
636,438	1491,36
636,782	1563,92
637,125	1678,6
637,468	1535,83
637,811	1489,02
638,154	1435,19
638,497	1390,72
638,84	1503,06
639,182	1554,55
639,525	1669,24
639,868	1767,54
640,211	1657,54
640,553	1622,43
640,896	1709,03
641,239	1865,85
641,581	1826,06
641,924	1680,94
642,266	1414,12
642,608	1261,99
642,951	1250,28
643,293	1264,33
643,635	1353,27
643,978	1313,48
644,32	1388,38
644,662	1414,12
645,004	1383,7
645,346	1297,1
645,688	1290,07
646,03	1315,82
646,372	1320,5
646,714	1290,07
647,055	1339,23
647,397	1332,2
647,739	1280,71
648,081	1285,39
648,422	1386,04
648,764	1547,53
649,105	1465,61
649,447	1538,17
649,788	1458,59
650,13	1479,66
650,471	1379,01
650,812	1346,25
651,153	1205,81
651,495	1222,2
651,836	1081,77
652,177	990,49
652,518	995,17
652,859	1006,87
653,2	1074,74
653,541	1063,04
653,882	1053,68
654,223	1046,66
654,564	1121,56
654,904	1109,85
655,245	999,85
655,586	1105,17
655,926	1140,28
656,267	1233,9
656,607	1339,23
656,948	1208,16
657,288	1109,85
657,629	990,49
657,969	988,14
658,309	1093,47
658,65	1006,87
658,99	1009,21
659,33	889,84
659,67	978,78
660,01	936,65
660,35	1013,89
660,69	910,91
661,03	838,35
661,37	950,7
661,71	1027,93
662,05	983,46
662,39	892,18
662,729	936,65
663,069	903,89
663,409	1107,51
663,748	1278,37
664,088	1388,38
664,427	1500,72
664,767	1369,65
665,106	1196,45
665,445	1149,64
665,785	1093,47
666,124	1053,68
666,463	955,38
666,802	1051,34
667,142	992,83
667,481	908,57
667,82	889,84
668,159	983,46
668,498	1067,72
668,837	971,76
669,175	938,99
669,514	864,1
669,853	807,92
670,192	718,98
670,53	765,79
670,869	817,29
671,208	847,71
671,546	726
671,885	742,39
672,223	768,13
672,561	763,45
672,9	665,15
673,238	800,9
673,576	754,09
673,915	754,09
674,253	742,39
674,591	747,07
674,929	763,45
675,267	747,07
675,605	864,1
675,943	805,58
676,281	730,69
676,619	819,63
676,956	765,79
677,294	812,6
677,632	831,33
677,97	758,77
678,307	669,83
678,645	756,43
678,982	704,94
679,32	728,35
679,657	779,84
679,995	718,98
680,332	702,6
680,669	758,77
681,006	651,11
681,344	744,73
681,681	686,22
682,018	655,79
682,355	604,3
682,692	660,47
683,029	620,68
683,366	667,49
683,703	679,19
684,04	625,36
684,376	704,94
684,713	730,69
685,05	744,73
685,387	726
685,723	693,24
686,06	648,77
686,396	623,02
686,733	756,43
687,069	723,66
687,406	770,48
687,742	665,15
688,078	726
688,414	655,79
688,751	726
689,087	693,24
689,423	653,45
689,759	625,36
690,095	639,41
690,431	704,94
690,767	641,75
691,103	672,17
691,439	639,41
691,774	644,09
692,11	707,28
692,446	616
692,781	709,62
693,117	611,32
693,453	711,96
693,788	639,41
694,124	632,38
694,459	665,15
694,794	674,51
695,13	590,25
695,465	658,13
695,8	800,9
696,135	978,78
696,471	1177,73
696,806	1128,58
697,141	1051,34
697,476	812,6
697,811	758,77
698,146	789,2
698,48	735,37
698,815	653,45
699,15	695,58
699,485	623,02
699,819	721,32
700,154	585,57
700,489	634,72
700,823	630,04
701,158	585,57
701,492	594,93
701,826	667,49
702,161	604,3
702,495	616
702,829	716,64
703,164	709,62
703,498	644,09
703,832	627,7
704,166	658,13
704,5	644,09
704,834	608,98
705,168	616
705,502	566,85
705,836	761,11
706,169	800,9
706,503	1063,04
706,837	1196,45
707,171	1135,6
707,504	957,72
707,838	735,37
708,171	620,68
708,505	674,51
708,838	482,59
709,172	545,78
709,505	634,72
709,838	653,45
710,171	606,64
710,505	545,78
710,838	658,13
711,171	632,38
711,504	536,42
711,837	711,96
712,17	765,79
712,503	831,33
712,836	807,92
713,169	784,52
713,501	637,06
713,834	550,46
714,167	569,19
714,499	618,34
714,832	644,09
715,165	658,13
715,497	571,53
715,83	601,96
716,162	630,04
716,494	494,29
716,827	503,65
717,159	527,06
717,491	571,53
717,823	597,28
718,155	520,04
718,488	552,81
718,82	524,72
719,152	424,08
719,484	597,28
719,815	569,19
720,147	491,95
720,479	534,08
720,811	543,44
721,143	491,95
721,474	501,31
721,806	470,89
722,137	489,61
722,469	587,91
722,8	489,61
723,132	487,27
723,463	489,61
723,795	433,44
724,126	424,08
724,457	489,61
724,788	484,93
725,119	536,42
725,451	501,31
725,782	473,23
726,113	524,72
726,444	601,96
726,775	625,36
727,105	487,27
727,436	608,98
727,767	632,38
728,098	552,81
728,428	555,15
728,759	480,25
729,09	487,27
729,42	496,63
729,751	456,84
730,081	484,93
730,412	498,97
730,742	513,02
731,072	477,91
731,403	468,55
731,733	459,18
732,063	550,46
732,393	480,25
732,723	440,46
733,053	428,76
733,383	452,16
733,713	473,23
734,043	461,52
734,373	421,74
734,703	536,42
735,032	466,21
735,362	524,72
735,692	442,8
736,021	529,4
736,351	550,46
736,68	454,5
737,01	470,89
737,339	548,12
737,669	747,07
737,998	922,61
738,327	1210,5
738,657	1418,8
738,986	1151,98
739,315	943,67
739,644	836,01
739,973	721,32
740,302	648,77
740,631	634,72
740,96	585,57
741,289	555,15
741,618	620,68
741,946	681,53
742,275	632,38
742,604	644,09
742,932	604,3
743,261	534,08
743,589	491,95
743,918	578,55
744,246	470,89
744,575	501,31
744,903	468,55
745,231	447,48
745,56	435,78
745,888	477,91
746,216	405,35
746,544	442,8
746,872	410,03
747,2	449,82
747,528	445,14
747,856	491,95
748,184	529,4
748,512	407,69
748,84	363,22
749,167	524,72
749,495	594,93
749,823	665,15
750,15	946,02
750,478	1177,73
750,805	1259,65
751,133	1308,8
751,46	1367,31
751,788	1276,03
752,115	1074,74
752,442	810,26
752,769	779,84
753,096	550,46
753,424	569,19
753,751	505,99
754,078	491,95
754,405	487,27
754,732	456,84
755,059	461,52
755,385	559,83
755,712	587,91
756,039	573,87
756,366	625,36
756,692	545,78
757,019	513,02
757,345	426,42
757,672	459,18
757,998	438,12
758,325	428,76
758,651	414,71
758,977	498,97
759,304	480,25
759,63	449,82
759,956	424,08
760,282	431,1
760,608	419,39
760,934	461,52
761,26	477,91
761,586	529,4
761,912	571,53
762,238	585,57
762,564	796,22
762,89	1065,38
