Data from USB2H080721_03-20-55-549.txt Node
Date: Tue May 16 03:20:55 BRT 2023
User: Quark
Spectrometer: USB2+H08072
Trigger mode: 4
Integration Time (sec): 1,000000E-1
Scans to average: 1
Electric dark correction enabled: true
Nonlinearity correction enabled: false
Boxcar width: 0
XAxis mode: Wavelengths
Number of Pixels in Spectrum: 2048
>>>>>Begin Spectral Data<<<<<
338,582	95,52
338,96	95,52
339,338	95,52
339,716	32,33
340,094	34,67
340,472	27,65
340,85	-47,25
341,228	4,24
341,606	55,73
341,984	13,6
342,362	1,9
342,74	-35,55
343,117	4,24
343,495	6,58
343,873	-2,78
344,25	-47,25
344,628	-77,68
345,005	-42,57
345,383	13,6
345,76	41,69
346,138	74,46
346,515	37,01
346,893	58,07
347,27	4,24
347,647	116,59
348,024	83,82
348,402	177,44
348,779	109,57
349,156	72,12
349,533	144,67
349,91	83,82
350,287	182,12
350,664	72,12
351,041	93,18
351,417	118,93
351,794	107,23
352,171	168,08
352,548	228,93
352,925	191,49
353,301	151,7
353,678	163,4
354,054	179,78
354,431	161,06
354,807	132,97
355,184	189,14
355,56	172,76
355,937	168,08
356,313	196,17
356,689	238,3
357,066	168,08
357,442	217,23
357,818	144,67
358,194	182,12
358,57	175,1
358,946	142,33
359,322	139,99
359,698	165,74
360,074	125,95
360,45	161,06
360,826	156,38
361,202	165,74
361,577	170,42
361,953	154,04
362,329	147,01
362,705	182,12
363,08	198,51
363,456	144,67
363,831	156,38
364,207	210,21
364,582	147,01
364,958	177,44
365,333	128,29
365,708	121,27
366,084	186,8
366,459	156,38
366,834	170,42
367,209	156,38
367,584	88,5
367,959	205,53
368,334	125,95
368,709	156,38
369,084	158,72
369,459	217,23
369,834	149,36
370,209	114,25
370,584	165,74
370,959	121,27
371,333	142,33
371,708	214,89
372,083	154,04
372,457	196,17
372,832	100,2
373,206	142,33
373,581	179,78
373,955	168,08
374,33	172,76
374,704	212,55
375,078	184,46
375,453	175,1
375,827	121,27
376,201	111,91
376,575	74,46
376,949	93,18
377,323	142,33
377,697	154,04
378,071	81,48
378,445	147,01
378,819	158,72
379,193	177,44
379,567	151,7
379,941	196,17
380,315	163,4
380,688	158,72
381,062	147,01
381,436	158,72
381,809	207,87
382,183	121,27
382,556	168,08
382,93	79,14
383,303	175,1
383,676	123,61
384,05	198,51
384,423	163,4
384,796	179,78
385,17	168,08
385,543	182,12
385,916	125,95
386,289	168,08
386,662	182,12
387,035	139,99
387,408	100,2
387,781	158,72
388,154	182,12
388,527	149,36
388,9	200,85
389,272	182,12
389,645	156,38
390,018	170,42
390,39	100,2
390,763	147,01
391,136	81,48
391,508	97,86
391,881	104,89
392,253	210,21
392,626	203,19
392,998	125,95
393,37	200,85
393,742	149,36
394,115	144,67
394,487	168,08
394,859	228,93
395,231	156,38
395,603	170,42
395,975	170,42
396,347	172,76
396,719	116,59
397,091	151,7
397,463	139,99
397,835	191,49
398,207	193,83
398,578	214,89
398,95	123,61
399,322	158,72
399,693	168,08
400,065	128,29
400,437	132,97
400,808	151,7
401,18	165,74
401,551	161,06
401,922	175,1
402,294	128,29
402,665	156,38
403,036	72,12
403,408	107,23
403,779	179,78
404,15	132,97
404,521	163,4
404,892	158,72
405,263	165,74
405,634	144,67
406,005	125,95
406,376	22,97
406,747	179,78
407,118	144,67
407,488	114,25
407,859	161,06
408,23	154,04
408,6	142,33
408,971	226,59
409,342	163,4
409,712	196,17
410,083	210,21
410,453	182,12
410,823	123,61
411,194	88,5
411,564	165,74
411,934	149,36
412,305	186,8
412,675	104,89
413,045	203,19
413,415	177,44
413,785	182,12
414,155	219,57
414,525	147,01
414,895	210,21
415,265	102,54
415,635	161,06
416,005	189,14
416,375	125,95
416,744	161,06
417,114	168,08
417,484	184,46
417,853	158,72
418,223	111,91
418,592	193,83
418,962	158,72
419,331	177,44
419,701	189,14
420,07	228,93
420,439	191,49
420,809	210,21
421,178	135,31
421,547	118,93
421,916	114,25
422,285	219,57
422,655	118,93
423,024	90,84
423,393	111,91
423,762	182,12
424,13	139,99
424,499	107,23
424,868	163,4
425,237	102,54
425,606	175,1
425,974	186,8
426,343	132,97
426,712	163,4
427,08	128,29
427,449	149,36
427,817	198,51
428,186	214,89
428,554	123,61
428,923	142,33
429,291	207,87
429,659	128,29
430,028	151,7
430,396	182,12
430,764	130,63
431,132	228,93
431,5	184,46
431,868	210,21
432,236	170,42
432,604	83,82
432,972	121,27
433,34	95,52
433,708	111,91
434,076	102,54
434,443	168,08
434,811	175,1
435,179	111,91
435,546	172,76
435,914	130,63
436,282	175,1
436,649	257,02
437,017	168,08
437,384	161,06
437,751	130,63
438,119	217,23
438,486	170,42
438,853	147,01
439,221	137,65
439,588	231,27
439,955	168,08
440,322	111,91
440,689	154,04
441,056	228,93
441,423	161,06
441,79	214,89
442,157	170,42
442,524	165,74
442,89	139,99
443,257	184,46
443,624	224,25
443,991	172,76
444,357	179,78
444,724	139,99
445,09	132,97
445,457	154,04
445,823	144,67
446,19	172,76
446,556	128,29
446,923	193,83
447,289	109,57
447,655	149,36
448,021	186,8
448,387	235,96
448,754	179,78
449,12	128,29
449,486	170,42
449,852	193,83
450,218	142,33
450,584	95,52
450,95	170,42
451,315	125,95
451,681	100,2
452,047	203,19
452,413	214,89
452,778	175,1
453,144	207,87
453,51	205,53
453,875	158,72
454,241	114,25
454,606	163,4
454,972	137,65
455,337	203,19
455,702	177,44
456,068	179,78
456,433	130,63
456,798	193,83
457,163	161,06
457,528	207,87
457,893	175,1
458,259	58,07
458,624	151,7
458,989	212,55
459,353	144,67
459,718	130,63
460,083	203,19
460,448	170,42
460,813	189,14
461,177	200,85
461,542	404,47
461,907	203,19
462,271	123,61
462,636	186,8
463	109,57
463,365	158,72
463,729	193,83
464,094	142,33
464,458	228,93
464,822	144,67
465,187	193,83
465,551	137,65
465,915	144,67
466,279	86,16
466,643	137,65
467,007	189,14
467,371	156,38
467,735	116,59
468,099	207,87
468,463	144,67
468,827	179,78
469,191	139,99
469,554	205,53
469,918	175,1
470,282	161,06
470,645	170,42
471,009	172,76
471,372	156,38
471,736	217,23
472,099	130,63
472,463	177,44
472,826	154,04
473,189	271,06
473,553	130,63
473,916	177,44
474,279	123,61
474,642	151,7
475,005	147,01
475,369	203,19
475,732	168,08
476,095	186,8
476,458	154,04
476,82	161,06
477,183	121,27
477,546	165,74
477,909	205,53
478,272	154,04
478,634	182,12
478,997	205,53
479,36	149,36
479,722	186,8
480,085	137,65
480,447	172,76
480,81	139,99
481,172	144,67
481,534	135,31
481,897	193,83
482,259	175,1
482,621	97,86
482,983	161,06
483,346	177,44
483,708	184,46
484,07	198,51
484,432	235,96
484,794	104,89
485,156	177,44
485,518	144,67
485,879	156,38
486,241	79,14
486,603	175,1
486,965	118,93
487,326	149,36
487,688	196,17
488,05	238,3
488,411	170,42
488,773	139,99
489,134	163,4
489,496	212,55
489,857	102,54
490,218	154,04
490,58	109,57
490,941	147,01
491,302	189,14
491,663	221,91
492,024	163,4
492,385	137,65
492,746	144,67
493,107	179,78
493,468	177,44
493,829	182,12
494,19	198,51
494,551	191,49
494,912	114,25
495,273	168,08
495,633	189,14
495,994	203,19
496,355	200,85
496,715	198,51
497,076	186,8
497,436	132,97
497,797	170,42
498,157	139,99
498,517	177,44
498,878	170,42
499,238	142,33
499,598	125,95
499,958	196,17
500,319	228,93
500,679	135,31
501,039	158,72
501,399	224,25
501,759	161,06
502,119	198,51
502,479	149,36
502,838	203,19
503,198	156,38
503,558	151,7
503,918	200,85
504,277	104,89
504,637	189,14
504,997	184,46
505,356	135,31
505,716	198,51
506,075	116,59
506,435	109,57
506,794	224,25
507,153	193,83
507,513	186,8
507,872	123,61
508,231	219,57
508,59	189,14
508,949	186,8
509,308	132,97
509,668	154,04
510,027	109,57
510,385	158,72
510,744	109,57
511,103	139,99
511,462	151,7
511,821	219,57
512,18	95,52
512,538	142,33
512,897	184,46
513,256	111,91
513,614	210,21
513,973	175,1
514,331	172,76
514,69	196,17
515,048	175,1
515,406	161,06
515,765	121,27
516,123	217,23
516,481	111,91
516,839	203,19
517,197	207,87
517,556	163,4
517,914	95,52
518,272	175,1
518,63	88,5
518,988	224,25
519,345	151,7
519,703	97,86
520,061	139,99
520,419	175,1
520,777	203,19
521,134	170,42
521,492	170,42
521,849	193,83
522,207	214,89
522,564	177,44
522,922	168,08
523,279	170,42
523,637	221,91
523,994	100,2
524,351	132,97
524,709	170,42
525,066	240,64
525,423	147,01
525,78	158,72
526,137	200,85
526,494	193,83
526,851	207,87
527,208	128,29
527,565	142,33
527,922	203,19
528,279	172,76
528,635	147,01
528,992	154,04
529,349	151,7
529,705	226,59
530,062	142,33
530,419	177,44
530,775	212,55
531,131	177,44
531,488	247,66
531,844	139,99
532,201	278,08
532,557	168,08
532,913	161,06
533,269	275,74
533,626	144,67
533,982	184,46
534,338	184,46
534,694	147,01
535,05	118,93
535,406	184,46
535,762	177,44
536,117	149,36
536,473	210,21
536,829	111,91
537,185	207,87
537,54	184,46
537,896	207,87
538,252	151,7
538,607	205,53
538,963	205,53
539,318	161,06
539,674	182,12
540,029	172,76
540,384	186,8
540,74	144,67
541,095	186,8
541,45	154,04
541,805	144,67
542,16	147,01
542,516	198,51
542,871	179,78
543,226	102,54
543,581	46,37
543,935	72,12
544,29	156,38
544,645	231,27
545	179,78
545,355	189,14
545,709	123,61
546,064	193,83
546,419	182,12
546,773	165,74
547,128	189,14
547,482	147,01
547,837	231,27
548,191	137,65
548,545	149,36
548,9	172,76
549,254	189,14
549,608	200,85
549,962	79,14
550,316	182,12
550,67	128,29
551,024	184,46
551,378	135,31
551,732	128,29
552,086	88,5
552,44	114,25
552,794	252,34
553,148	170,42
553,501	163,4
553,855	186,8
554,209	198,51
554,562	245,32
554,916	189,14
555,27	186,8
555,623	137,65
555,976	102,54
556,33	254,68
556,683	172,76
557,036	144,67
557,39	182,12
557,743	132,97
558,096	203,19
558,449	151,7
558,802	137,65
559,155	203,19
559,508	193,83
559,861	203,19
560,214	154,04
560,567	132,97
560,92	123,61
561,273	233,61
561,625	168,08
561,978	165,74
562,331	168,08
562,683	156,38
563,036	149,36
563,388	93,18
563,741	118,93
564,093	151,7
564,446	142,33
564,798	83,82
565,15	175,1
565,503	100,2
565,855	123,61
566,207	214,89
566,559	128,29
566,911	203,19
567,263	144,67
567,615	219,57
567,967	205,53
568,319	161,06
568,671	161,06
569,023	170,42
569,374	179,78
569,726	168,08
570,078	231,27
570,429	168,08
570,781	158,72
571,133	163,4
571,484	161,06
571,836	118,93
572,187	175,1
572,538	224,25
572,89	107,23
573,241	114,25
573,592	125,95
573,943	191,49
574,295	147,01
574,646	191,49
574,997	217,23
575,348	132,97
575,699	156,38
576,05	177,44
576,401	123,61
576,751	168,08
577,102	114,25
577,453	203,19
577,804	193,83
578,154	130,63
578,505	196,17
578,856	214,89
579,206	203,19
579,557	163,4
579,907	186,8
580,258	132,97
580,608	189,14
580,958	147,01
581,308	107,23
581,659	135,31
582,009	156,38
582,359	189,14
582,709	161,06
583,059	184,46
583,409	123,61
583,759	116,59
584,109	172,76
584,459	154,04
584,809	158,72
585,159	100,2
585,508	137,65
585,858	217,23
586,208	214,89
586,557	168,08
586,907	205,53
587,256	168,08
587,606	210,21
587,955	95,52
588,305	147,01
588,654	182,12
589,003	125,95
589,353	172,76
589,702	156,38
590,051	226,59
590,4	135,31
590,749	175,1
591,098	125,95
591,447	198,51
591,796	165,74
592,145	214,89
592,494	102,54
592,843	135,31
593,192	175,1
593,54	149,36
593,889	179,78
594,238	139,99
594,586	193,83
594,935	163,4
595,283	247,66
595,632	189,14
595,98	170,42
596,329	154,04
596,677	240,64
597,025	191,49
597,374	200,85
597,722	219,57
598,07	156,38
598,418	83,82
598,766	235,96
599,114	217,23
599,462	154,04
599,81	109,57
600,158	184,46
600,506	144,67
600,854	151,7
601,201	139,99
601,549	179,78
601,897	193,83
602,244	74,46
602,592	156,38
602,939	214,89
603,287	219,57
603,634	224,25
603,982	184,46
604,329	177,44
604,676	224,25
605,024	170,42
605,371	179,78
605,718	151,7
606,065	242,98
606,412	165,74
606,759	168,08
607,106	221,91
607,453	219,57
607,8	170,42
608,147	142,33
608,494	130,63
608,841	147,01
609,187	203,19
609,534	149,36
609,881	250
610,227	154,04
610,574	217,23
610,92	142,33
611,267	547,25
611,613	132,97
611,96	128,29
612,306	203,19
612,652	128,29
612,999	231,27
613,345	193,83
613,691	121,27
614,037	177,44
614,383	144,67
614,729	175,1
615,075	182,12
615,421	139,99
615,767	161,06
616,113	151,7
616,459	168,08
616,804	118,93
617,15	128,29
617,496	196,17
617,841	165,74
618,187	177,44
618,533	151,7
618,878	257,02
619,223	191,49
619,569	149,36
619,914	228,93
620,26	151,7
620,605	172,76
620,95	121,27
621,295	142,33
621,64	135,31
621,985	165,74
622,33	177,44
622,675	95,52
623,02	109,57
623,365	168,08
623,71	189,14
624,055	86,16
624,4	125,95
624,744	191,49
625,089	154,04
625,434	198,51
625,778	179,78
626,123	193,83
626,467	156,38
626,812	135,31
627,156	114,25
627,501	151,7
627,845	200,85
628,189	212,55
628,533	163,4
628,878	154,04
629,222	200,85
629,566	184,46
629,91	142,33
630,254	226,59
630,598	158,72
630,942	132,97
631,286	203,19
631,63	233,61
631,973	135,31
632,317	224,25
632,661	132,97
633,004	156,38
633,348	156,38
633,692	135,31
634,035	177,44
634,379	235,96
634,722	186,8
635,065	198,51
635,409	182,12
635,752	203,19
636,095	182,12
636,438	79,14
636,782	191,49
637,125	172,76
637,468	125,95
637,811	156,38
638,154	226,59
638,497	114,25
638,84	172,76
639,182	184,46
639,525	175,1
639,868	121,27
640,211	100,2
640,553	203,19
640,896	149,36
641,239	198,51
641,581	142,33
641,924	142,33
642,266	118,93
642,608	158,72
642,951	161,06
643,293	137,65
643,635	95,52
643,978	196,17
644,32	182,12
644,662	144,67
645,004	100,2
645,346	132,97
645,688	132,97
646,03	196,17
646,372	224,25
646,714	175,1
647,055	219,57
647,397	226,59
647,739	170,42
648,081	144,67
648,422	280,43
648,764	114,25
649,105	161,06
649,447	217,23
649,788	226,59
650,13	193,83
650,471	149,36
650,812	179,78
651,153	179,78
651,495	170,42
651,836	221,91
652,177	231,27
652,518	170,42
652,859	200,85
653,2	147,01
653,541	189,14
653,882	184,46
654,223	139,99
654,564	114,25
654,904	118,93
655,245	163,4
655,586	184,46
655,926	107,23
656,267	163,4
656,607	168,08
656,948	123,61
657,288	182,12
657,629	158,72
657,969	184,46
658,309	154,04
658,65	121,27
658,99	116,59
659,33	154,04
659,67	165,74
660,01	163,4
660,35	128,29
660,69	189,14
661,03	161,06
661,37	170,42
661,71	147,01
662,05	100,2
662,39	149,36
662,729	266,38
663,069	142,33
663,409	203,19
663,748	175,1
664,088	196,17
664,427	170,42
664,767	182,12
665,106	175,1
665,445	158,72
665,785	228,93
666,124	245,32
666,463	175,1
666,802	132,97
667,142	158,72
667,481	158,72
667,82	182,12
668,159	175,1
668,498	172,76
668,837	168,08
669,175	125,95
669,514	191,49
669,853	203,19
670,192	142,33
670,53	130,63
670,869	114,25
671,208	207,87
671,546	205,53
671,885	177,44
672,223	217,23
672,561	196,17
672,9	123,61
673,238	154,04
673,576	144,67
673,915	179,78
674,253	170,42
674,591	200,85
674,929	221,91
675,267	93,18
675,605	182,12
675,943	156,38
676,281	203,19
676,619	212,55
676,956	219,57
677,294	172,76
677,632	107,23
677,97	219,57
678,307	175,1
678,645	196,17
678,982	154,04
679,32	158,72
679,657	163,4
679,995	135,31
680,332	170,42
680,669	107,23
681,006	156,38
681,344	163,4
681,681	125,95
682,018	172,76
682,355	132,97
682,692	200,85
683,029	168,08
683,366	177,44
683,703	219,57
684,04	48,71
684,376	111,91
684,713	203,19
685,05	93,18
685,387	175,1
685,723	182,12
686,06	168,08
686,396	163,4
686,733	149,36
687,069	228,93
687,406	137,65
687,742	165,74
688,078	135,31
688,414	203,19
688,751	107,23
689,087	172,76
689,423	114,25
689,759	149,36
690,095	186,8
690,431	116,59
690,767	219,57
691,103	172,76
691,439	161,06
691,774	121,27
692,11	107,23
692,446	154,04
692,781	189,14
693,117	198,51
693,453	179,78
693,788	147,01
694,124	158,72
694,459	156,38
694,794	179,78
695,13	186,8
695,465	147,01
695,8	177,44
696,135	235,96
696,471	172,76
696,806	132,97
697,141	186,8
697,476	144,67
697,811	65,1
698,146	132,97
698,48	198,51
698,815	168,08
699,15	196,17
699,485	203,19
699,819	165,74
700,154	142,33
700,489	158,72
700,823	125,95
701,158	196,17
701,492	151,7
701,826	228,93
702,161	235,96
702,495	235,96
702,829	130,63
703,164	147,01
703,498	128,29
703,832	109,57
704,166	128,29
704,5	139,99
704,834	196,17
705,168	198,51
705,502	226,59
705,836	228,93
706,169	154,04
706,503	177,44
706,837	219,57
707,171	163,4
707,504	175,1
707,838	189,14
708,171	196,17
708,505	172,76
708,838	165,74
709,172	191,49
709,505	165,74
709,838	214,89
710,171	189,14
710,505	132,97
710,838	154,04
711,171	200,85
711,504	184,46
711,837	182,12
712,17	221,91
712,503	191,49
712,836	116,59
713,169	196,17
713,501	175,1
713,834	137,65
714,167	205,53
714,499	205,53
714,832	196,17
715,165	158,72
715,497	139,99
715,83	142,33
716,162	158,72
716,494	247,66
716,827	226,59
717,159	179,78
717,491	147,01
717,823	205,53
718,155	191,49
718,488	214,89
718,82	137,65
719,152	179,78
719,484	212,55
719,815	191,49
720,147	93,18
720,479	212,55
720,811	261,7
721,143	170,42
721,474	144,67
721,806	191,49
722,137	184,46
722,469	210,21
722,8	139,99
723,132	107,23
723,463	123,61
723,795	210,21
724,126	170,42
724,457	177,44
724,788	149,36
725,119	118,93
725,451	151,7
725,782	226,59
726,113	189,14
726,444	217,23
726,775	100,2
727,105	177,44
727,436	207,87
727,767	142,33
728,098	142,33
728,428	214,89
728,759	189,14
729,09	177,44
729,42	175,1
729,751	200,85
730,081	191,49
730,412	172,76
730,742	191,49
731,072	165,74
731,403	137,65
731,733	175,1
732,063	193,83
732,393	177,44
732,723	154,04
733,053	123,61
733,383	168,08
733,713	184,46
734,043	191,49
734,373	144,67
734,703	158,72
735,032	228,93
735,362	212,55
735,692	116,59
736,021	212,55
736,351	191,49
736,68	200,85
737,01	165,74
737,339	165,74
737,669	179,78
737,998	111,91
738,327	158,72
738,657	212,55
738,986	177,44
739,315	161,06
739,644	179,78
739,973	151,7
740,302	191,49
740,631	212,55
740,96	210,21
741,289	196,17
741,618	205,53
741,946	144,67
742,275	210,21
742,604	93,18
742,932	163,4
743,261	233,61
743,589	189,14
743,918	200,85
744,246	182,12
744,575	161,06
744,903	156,38
745,231	217,23
745,56	114,25
745,888	163,4
746,216	240,64
746,544	168,08
746,872	210,21
747,2	158,72
747,528	175,1
747,856	210,21
748,184	224,25
748,512	203,19
748,84	102,54
749,167	210,21
749,495	161,06
749,823	257,02
750,15	205,53
750,478	125,95
750,805	191,49
751,133	224,25
751,46	200,85
751,788	196,17
752,115	168,08
752,442	168,08
752,769	191,49
753,096	161,06
753,424	191,49
753,751	161,06
754,078	154,04
754,405	107,23
754,732	135,31
755,059	179,78
755,385	200,85
755,712	144,67
756,039	177,44
756,366	214,89
756,692	151,7
757,019	233,61
757,345	205,53
757,672	177,44
757,998	182,12
758,325	217,23
758,651	250
758,977	137,65
759,304	147,01
759,63	118,93
759,956	186,8
760,282	231,27
760,608	240,64
760,934	184,46
761,26	111,91
761,586	203,19
761,912	158,72
762,238	111,91
762,564	172,76
762,89	214,89
763,215	165,74
763,541	128,29
763,867	114,25
764,192	170,42
764,518	200,85
764,843	231,27
765,169	172,76
765,494	147,01
765,819	182,12
766,145	210,21
766,47	137,65
766,795	247,66
767,12	177,44
767,445	200,85
767,77	186,8
768,095	191,49
768,42	245,32
768,745	158,72
769,07	189,14
769,395	147,01
769,719	233,61
770,044	175,1
770,369	224,25
770,693	250
771,018	217,23
771,343	191,49
771,667	175,1
771,991	205,53
772,316	191,49
772,64	163,4
772,964	175,1
773,289	231,27
773,613	179,78
773,937	189,14
774,261	158,72
774,585	149,36
774,909	135,31
775,233	154,04
775,557	132,97
775,881	219,57
776,205	170,42
776,528	144,67
776,852	170,42
777,176	196,17
777,499	228,93
