Data from USB2H080721_08-25-57-417.txt Node
Date: Wed May 10 08:25:57 BRT 2023
User: Quark
Spectrometer: USB2+H08072
Trigger mode: 4
Integration Time (sec): 1,000000E-2
Scans to average: 1
Electric dark correction enabled: true
Nonlinearity correction enabled: false
Boxcar width: 0
XAxis mode: Wavelengths
Number of Pixels in Spectrum: 2048
>>>>>Begin Spectral Data<<<<<
338,582	146,28
338,96	146,28
339,338	146,28
339,716	113,52
340,094	47,98
340,472	-1,17
340,85	38,62
341,228	50,32
341,606	19,89
341,984	17,55
342,362	-52,66
342,74	10,53
343,117	-3,51
343,495	-52,66
343,873	-47,98
344,25	-19,89
344,628	26,92
345,005	-8,19
345,383	57,34
345,76	-31,6
346,138	-19,89
346,515	15,21
346,893	57,34
347,27	-10,53
347,647	10,53
348,024	179,05
348,402	169,69
348,779	186,07
349,156	190,75
349,533	146,28
349,91	202,46
350,287	181,39
350,664	296,08
351,041	230,54
351,417	221,18
351,794	228,2
352,171	293,74
352,548	260,97
352,925	321,82
353,301	218,84
353,678	244,59
354,054	326,5
354,431	342,89
354,807	277,35
355,184	244,59
355,56	328,85
355,937	328,85
356,313	181,39
356,689	286,72
357,066	249,27
357,442	310,12
357,818	263,31
358,194	347,57
358,57	275,01
358,946	244,59
359,322	403,74
359,698	326,5
360,074	328,85
360,45	314,8
360,826	256,29
361,202	296,08
361,577	239,9
361,953	244,59
362,329	300,76
362,705	244,59
363,08	279,69
363,456	321,82
363,831	328,85
364,207	307,78
364,582	310,12
364,958	277,35
365,333	228,2
365,708	253,95
366,084	331,19
366,459	230,54
366,834	251,61
367,209	275,01
367,584	305,44
367,959	333,53
368,334	333,53
368,709	265,65
369,084	289,06
369,459	326,5
369,834	333,53
370,209	314,8
370,584	237,56
370,959	237,56
371,333	256,29
371,708	214,16
372,083	218,84
372,457	200,12
372,832	314,8
373,206	403,74
373,581	284,38
373,955	296,08
374,33	303,1
374,704	312,46
375,078	300,76
375,453	380,34
375,827	303,1
376,201	258,63
376,575	237,56
376,949	406,08
377,323	324,16
377,697	279,69
378,071	291,4
378,445	277,35
378,819	251,61
379,193	363,95
379,567	237,56
379,941	340,55
380,315	282,03
380,688	272,67
381,062	303,1
381,436	345,23
381,809	375,66
382,183	396,72
382,556	317,14
382,93	310,12
383,303	406,08
383,676	300,76
384,05	305,44
384,423	319,48
384,796	324,16
385,17	331,19
385,543	370,97
385,916	352,25
386,289	305,44
386,662	321,82
387,035	277,35
387,408	300,76
387,781	394,38
388,154	279,69
388,527	370,97
388,9	293,74
389,272	310,12
389,645	375,66
390,018	356,93
390,39	340,55
390,763	385,02
391,136	406,08
391,508	349,91
391,881	375,66
392,253	314,8
392,626	338,21
392,998	275,01
393,37	373,32
393,742	389,7
394,115	424,81
394,487	382,68
394,859	370,97
395,231	314,8
395,603	396,72
395,975	387,36
396,347	382,68
396,719	436,51
397,091	352,25
397,463	427,15
397,835	408,42
398,207	455,23
398,578	389,7
398,95	403,74
399,322	443,53
399,693	443,53
400,065	366,29
400,437	410,76
400,808	452,89
401,18	396,72
401,551	385,02
401,922	434,17
402,294	452,89
402,665	436,51
403,036	434,17
403,408	431,83
403,779	441,19
404,15	399,06
404,521	378
404,892	406,08
405,263	392,04
405,634	415,45
406,005	420,13
406,376	473,96
406,747	478,64
407,118	450,55
407,488	399,06
407,859	452,89
408,23	349,91
408,6	410,76
408,971	408,42
409,342	429,49
409,712	406,08
410,083	457,57
410,453	438,85
410,823	427,15
411,194	495,02
411,564	438,85
411,934	504,39
412,305	523,11
412,675	434,17
413,045	469,28
413,415	499,7
413,785	464,6
414,155	497,36
414,525	441,19
414,895	478,64
415,265	516,09
415,635	452,89
416,005	399,06
416,375	537,15
416,744	478,64
417,114	434,17
417,484	502,04
417,853	469,28
418,223	551,2
418,592	415,45
418,962	527,79
419,331	455,23
419,701	438,85
420,07	504,39
420,439	480,98
420,809	483,32
421,178	413,1
421,547	459,92
421,916	450,55
422,285	462,26
422,655	548,86
423,024	417,79
423,393	480,98
423,762	480,98
424,13	560,56
424,499	560,56
424,868	523,11
425,237	473,96
425,606	450,55
425,974	525,45
426,343	537,15
426,712	480,98
427,08	499,7
427,449	492,68
427,817	490,34
428,186	534,81
428,554	513,75
428,923	462,26
429,291	429,49
429,659	537,15
430,028	509,07
430,396	534,81
430,764	527,79
431,132	523,11
431,5	478,64
431,868	464,6
432,236	527,79
432,604	555,88
432,972	551,2
433,34	544,17
433,708	527,79
434,076	464,6
434,443	480,98
434,811	480,98
435,179	523,11
435,546	569,92
435,914	525,45
436,282	548,86
436,649	502,04
437,017	574,6
437,384	607,37
437,751	595,67
438,119	548,86
438,486	527,79
438,853	612,05
439,221	616,73
439,588	509,07
439,955	520,77
440,322	534,81
440,689	523,11
441,056	523,11
441,423	546,52
441,79	497,36
442,157	537,15
442,524	572,26
442,89	523,11
443,257	499,7
443,624	553,54
443,991	555,88
444,357	567,58
444,724	541,83
445,09	530,13
445,457	576,94
445,823	567,58
446,19	553,54
446,556	602,69
446,923	525,45
447,289	616,73
447,655	640,14
448,021	682,27
448,387	647,16
448,754	574,6
449,12	527,79
449,486	539,49
449,852	651,84
450,218	576,94
450,584	530,13
450,95	583,96
451,315	530,13
451,681	548,86
452,047	586,3
452,413	478,64
452,778	619,07
453,144	626,09
453,51	539,49
453,875	588,64
454,241	516,09
454,606	551,2
454,972	555,88
455,337	541,83
455,702	560,56
456,068	619,07
456,433	546,52
456,798	560,56
457,163	567,58
457,528	600,35
457,893	558,22
458,259	567,58
458,624	537,15
458,989	581,62
459,353	609,71
459,718	527,79
460,083	579,28
460,448	598,01
460,813	548,86
461,177	565,24
461,542	616,73
461,907	551,2
462,271	530,13
462,636	544,17
463	576,94
463,365	628,43
463,729	560,56
464,094	684,61
464,458	576,94
464,822	623,75
465,187	548,86
465,551	525,45
465,915	532,47
466,279	478,64
466,643	605,03
467,007	555,88
467,371	560,56
467,735	555,88
468,099	583,96
468,463	541,83
468,827	619,07
469,191	583,96
469,554	502,04
469,918	572,26
470,282	565,24
470,645	628,43
471,009	637,8
471,372	586,3
471,736	630,77
472,099	579,28
472,463	656,52
472,826	649,5
473,189	661,2
473,553	595,67
473,916	672,9
474,279	640,14
474,642	616,73
475,005	637,8
475,369	590,99
475,732	628,43
476,095	675,24
476,458	600,35
476,82	682,27
477,183	663,54
477,546	703,33
477,909	605,03
478,272	640,14
478,634	684,61
478,997	668,22
479,36	787,59
479,722	621,41
480,085	747,8
480,447	719,71
480,81	700,99
481,172	752,48
481,534	731,42
481,897	780,57
482,259	715,03
482,621	782,91
482,983	719,71
483,346	757,16
483,708	820,36
484,07	752,48
484,432	799,29
484,794	775,89
485,156	766,53
485,518	780,57
485,879	750,14
486,241	752,48
486,603	827,38
486,965	815,68
487,326	928,02
487,688	874,19
488,05	883,55
488,411	780,57
488,773	796,95
489,134	815,68
489,496	843,76
489,857	829,72
490,218	764,18
490,58	792,27
490,941	778,23
491,302	841,42
491,663	799,29
492,024	928,02
492,385	857,81
492,746	799,29
493,107	745,46
493,468	792,27
493,829	888,23
494,19	726,74
494,551	850,78
494,912	766,53
495,273	766,53
495,633	839,08
495,994	813,34
496,355	675,24
496,715	787,59
497,076	759,5
497,436	785,25
497,797	761,84
498,157	698,65
498,517	775,89
498,878	829,72
499,238	736,1
499,598	747,8
499,958	733,76
500,319	743,12
500,679	745,46
501,039	789,93
501,399	794,61
501,759	836,74
502,119	736,1
502,479	682,27
502,838	757,16
503,198	818,02
503,558	801,63
503,918	820,36
504,277	799,29
504,637	745,46
504,997	813,34
505,356	740,78
505,716	778,23
506,075	771,21
506,435	750,14
506,794	757,16
507,153	780,57
507,513	834,4
507,872	724,4
508,231	782,91
508,59	801,63
508,949	658,86
509,308	773,55
509,668	738,44
510,027	693,97
510,385	712,69
510,744	747,8
511,103	815,68
511,462	815,68
511,821	736,1
512,18	682,27
512,538	743,12
512,897	829,72
513,256	708,01
513,614	698,65
513,973	679,93
514,331	787,59
514,69	705,67
515,048	766,53
515,406	829,72
515,765	710,35
516,123	759,5
516,481	717,37
516,839	729,08
517,197	759,5
517,556	696,31
517,914	731,42
518,272	836,74
518,63	750,14
518,988	761,84
519,345	764,18
519,703	773,55
520,061	729,08
520,419	785,25
520,777	759,5
521,134	712,69
521,492	778,23
521,849	719,71
522,207	775,89
522,564	693,97
522,922	747,8
523,279	787,59
523,637	827,38
523,994	768,87
524,351	745,46
524,709	724,4
525,066	764,18
525,423	738,44
525,78	764,18
526,137	787,59
526,494	750,14
526,851	768,87
527,208	715,03
527,565	808,66
527,922	801,63
528,279	675,24
528,635	836,74
528,992	773,55
529,349	780,57
529,705	703,33
530,062	743,12
530,419	750,14
530,775	705,67
531,131	623,75
531,488	738,44
531,844	715,03
532,201	773,55
532,557	722,06
532,913	768,87
533,269	619,07
533,626	644,82
533,982	689,29
534,338	696,31
534,694	665,88
535,05	808,66
535,406	759,5
535,762	656,52
536,117	693,97
536,473	726,74
536,829	715,03
537,185	682,27
537,54	743,12
537,896	722,06
538,252	787,59
538,607	766,53
538,963	757,16
539,318	759,5
539,674	752,48
540,029	738,44
540,384	752,48
540,74	743,12
541,095	815,68
541,45	726,74
541,805	698,65
542,16	747,8
542,516	724,4
542,871	782,91
543,226	752,48
543,581	703,33
543,935	724,4
544,29	743,12
544,645	761,84
545	733,76
545,355	780,57
545,709	820,36
546,064	778,23
546,419	705,67
546,773	771,21
547,128	782,91
547,482	799,29
547,837	717,37
548,191	787,59
548,545	708,01
548,9	733,76
549,254	729,08
549,608	780,57
549,962	679,93
550,316	757,16
550,67	759,5
551,024	722,06
551,378	750,14
551,732	773,55
552,086	738,44
552,44	665,88
552,794	745,46
553,148	722,06
553,501	717,37
553,855	736,1
554,209	679,93
554,562	675,24
554,916	822,7
555,27	722,06
555,623	775,89
555,976	757,16
556,33	679,93
556,683	754,82
557,036	689,29
557,39	750,14
557,743	752,48
558,096	766,53
558,449	736,1
558,802	785,25
559,155	722,06
559,508	731,42
559,861	670,56
560,214	775,89
560,567	789,93
560,92	733,76
561,273	806,31
561,625	771,21
561,978	771,21
562,331	644,82
562,683	724,4
563,036	768,87
563,388	729,08
563,741	731,42
564,093	715,03
564,446	691,63
564,798	689,29
565,15	768,87
565,503	799,29
565,855	658,86
566,207	754,82
566,559	656,52
566,911	761,84
567,263	719,71
567,615	651,84
567,967	693,97
568,319	635,46
568,671	647,16
569,023	656,52
569,374	703,33
569,726	647,16
570,078	696,31
570,429	609,71
570,781	754,82
571,133	722,06
571,484	637,8
571,836	654,18
572,187	698,65
572,538	700,99
572,89	537,15
573,241	595,67
573,592	635,46
573,943	691,63
574,295	581,62
574,646	668,22
574,997	658,86
575,348	647,16
575,699	663,54
576,05	672,9
576,401	593,33
576,751	579,28
577,102	626,09
577,453	649,5
577,804	630,77
578,154	595,67
578,505	647,16
578,856	656,52
579,206	581,62
579,557	656,52
579,907	635,46
580,258	553,54
580,608	581,62
580,958	626,09
581,308	546,52
581,659	644,82
582,009	541,83
582,359	574,6
582,709	654,18
583,059	590,99
583,409	626,09
583,759	612,05
584,109	663,54
584,459	598,01
584,809	637,8
585,159	565,24
585,508	560,56
585,858	605,03
586,208	581,62
586,557	593,33
586,907	626,09
587,256	574,6
587,606	672,9
587,955	574,6
588,305	628,43
588,654	527,79
589,003	621,41
589,353	511,41
589,702	588,64
590,051	684,61
590,4	569,92
590,749	513,75
591,098	569,92
591,447	541,83
591,796	668,22
592,145	588,64
592,494	490,34
592,843	516,09
593,192	548,86
593,54	593,33
593,889	551,2
594,238	488
594,586	530,13
594,935	527,79
595,283	590,99
595,632	551,2
595,98	539,49
596,329	558,22
596,677	551,2
597,025	560,56
597,374	530,13
597,722	562,9
598,07	576,94
598,418	499,7
598,766	572,26
599,114	527,79
599,462	506,73
599,81	569,92
600,158	537,15
600,506	558,22
600,854	586,3
601,201	565,24
601,549	527,79
601,897	520,77
602,244	485,66
602,592	546,52
602,939	532,47
603,287	546,52
603,634	518,43
603,982	555,88
604,329	614,39
604,676	590,99
605,024	551,2
605,371	488
605,718	619,07
606,065	518,43
606,412	619,07
606,759	679,93
607,106	588,64
607,453	567,58
607,8	569,92
608,147	616,73
608,494	555,88
608,841	647,16
609,187	619,07
609,534	586,3
609,881	682,27
610,227	576,94
610,574	569,92
610,92	619,07
611,267	562,9
611,613	490,34
611,96	499,7
612,306	598,01
612,652	635,46
612,999	600,35
613,345	562,9
613,691	511,41
614,037	586,3
614,383	635,46
614,729	595,67
615,075	551,2
615,421	605,03
615,767	525,45
616,113	581,62
616,459	668,22
616,804	562,9
617,15	619,07
617,496	595,67
617,841	640,14
618,187	574,6
618,533	525,45
618,878	516,09
619,223	490,34
619,569	579,28
619,914	490,34
620,26	560,56
620,605	527,79
620,95	537,15
621,295	605,03
621,64	583,96
621,985	534,81
622,33	527,79
622,675	532,47
623,02	490,34
623,365	532,47
623,71	438,85
624,055	600,35
624,4	553,54
624,744	485,66
625,089	403,74
625,434	499,7
625,778	499,7
626,123	492,68
626,467	565,24
626,812	520,77
627,156	485,66
627,501	476,3
627,845	455,23
628,189	466,94
628,533	502,04
628,878	506,73
629,222	635,46
629,566	558,22
629,91	457,57
630,254	518,43
630,598	473,96
630,942	448,21
631,286	476,3
631,63	497,36
631,973	509,07
632,317	532,47
632,661	516,09
633,004	450,55
633,348	403,74
633,692	497,36
634,035	502,04
634,379	443,53
634,722	455,23
635,065	420,13
635,409	551,2
635,752	452,89
636,095	513,75
636,438	544,17
636,782	457,57
637,125	518,43
637,468	473,96
637,811	466,94
638,154	464,6
638,497	473,96
638,84	541,83
639,182	427,15
639,525	459,92
639,868	509,07
640,211	509,07
640,553	473,96
640,896	466,94
641,239	485,66
641,581	516,09
641,924	499,7
642,266	485,66
642,608	452,89
642,951	516,09
643,293	424,81
643,635	495,02
643,978	511,41
644,32	513,75
644,662	480,98
645,004	406,08
645,346	459,92
645,688	459,92
646,03	476,3
646,372	443,53
646,714	462,26
647,055	438,85
647,397	476,3
647,739	408,42
648,081	422,47
648,422	422,47
648,764	399,06
649,105	455,23
649,447	462,26
649,788	459,92
650,13	518,43
650,471	441,19
650,812	476,3
651,153	527,79
651,495	492,68
651,836	441,19
652,177	478,64
652,518	464,6
652,859	438,85
653,2	516,09
653,541	532,47
653,882	443,53
654,223	434,17
654,564	495,02
654,904	511,41
655,245	408,42
655,586	502,04
655,926	455,23
656,267	495,02
656,607	443,53
656,948	478,64
657,288	462,26
657,629	488
657,969	434,17
658,309	490,34
658,65	464,6
658,99	455,23
659,33	417,79
659,67	382,68
660,01	436,51
660,35	408,42
660,69	429,49
661,03	413,1
661,37	488
661,71	429,49
662,05	499,7
662,39	462,26
662,729	422,47
663,069	385,02
663,409	431,83
663,748	434,17
664,088	469,28
664,427	459,92
664,767	476,3
665,106	457,57
665,445	401,4
665,785	424,81
666,124	417,79
666,463	406,08
666,802	427,15
667,142	361,61
667,481	438,85
667,82	406,08
668,159	480,98
668,498	457,57
668,837	420,13
669,175	387,36
669,514	373,32
669,853	340,55
670,192	370,97
670,53	382,68
670,869	352,25
671,208	375,66
671,546	370,97
671,885	340,55
672,223	356,93
672,561	375,66
672,9	378
673,238	380,34
673,576	401,4
673,915	375,66
674,253	331,19
674,591	363,95
674,929	347,57
675,267	431,83
675,605	328,85
675,943	363,95
676,281	373,32
676,619	366,29
676,956	366,29
677,294	382,68
677,632	373,32
677,97	387,36
678,307	347,57
678,645	305,44
678,982	361,61
679,32	363,95
679,657	335,87
679,995	389,7
680,332	345,23
680,669	324,16
681,006	324,16
681,344	354,59
681,681	363,95
682,018	375,66
682,355	312,46
682,692	363,95
683,029	417,79
683,366	342,89
683,703	340,55
684,04	289,06
684,376	289,06
684,713	275,01
685,05	370,97
685,387	307,78
685,723	291,4
686,06	333,53
686,396	375,66
686,733	319,48
687,069	246,93
687,406	366,29
687,742	284,38
688,078	331,19
688,414	317,14
688,751	303,1
689,087	382,68
689,423	317,14
689,759	349,91
690,095	347,57
690,431	399,06
690,767	349,91
691,103	291,4
691,439	342,89
691,774	328,85
692,11	382,68
692,446	354,59
692,781	303,1
693,117	310,12
693,453	342,89
693,788	335,87
694,124	303,1
694,459	312,46
694,794	277,35
695,13	335,87
695,465	282,03
695,8	319,48
696,135	363,95
696,471	314,8
696,806	378
697,141	296,08
697,476	275,01
697,811	319,48
698,146	293,74
698,48	296,08
698,815	345,23
699,15	352,25
699,485	333,53
699,819	312,46
700,154	335,87
700,489	284,38
700,823	335,87
701,158	296,08
701,492	321,82
701,826	284,38
702,161	331,19
702,495	345,23
702,829	305,44
703,164	282,03
703,498	291,4
703,832	223,52
704,166	312,46
704,5	293,74
704,834	338,21
705,168	368,63
705,502	347,57
705,836	263,31
706,169	263,31
706,503	300,76
706,837	331,19
707,171	310,12
707,504	385,02
707,838	279,69
708,171	326,5
708,505	310,12
708,838	293,74
709,172	228,2
709,505	263,31
709,838	305,44
710,171	333,53
710,505	331,19
710,838	286,72
711,171	289,06
711,504	289,06
711,837	307,78
712,17	251,61
712,503	263,31
712,836	354,59
713,169	303,1
713,501	263,31
713,834	263,31
714,167	221,18
714,499	225,86
714,832	256,29
715,165	312,46
715,497	277,35
715,83	305,44
716,162	291,4
716,494	305,44
716,827	237,56
717,159	211,82
717,491	237,56
717,823	303,1
718,155	317,14
718,488	282,03
718,82	307,78
719,152	282,03
719,484	275,01
719,815	253,95
720,147	230,54
720,479	328,85
720,811	321,82
721,143	296,08
721,474	289,06
721,806	218,84
722,137	253,95
722,469	298,42
722,8	267,99
723,132	319,48
723,463	289,06
723,795	235,22
724,126	324,16
724,457	267,99
724,788	256,29
725,119	275,01
725,451	300,76
725,782	319,48
726,113	312,46
726,444	207,14
726,775	256,29
727,105	300,76
727,436	296,08
727,767	242,25
728,098	218,84
728,428	267,99
728,759	204,8
729,09	256,29
729,42	237,56
729,751	244,59
730,081	263,31
730,412	230,54
730,742	218,84
731,072	272,67
731,403	232,88
731,733	291,4
732,063	211,82
732,393	246,93
732,723	249,27
733,053	242,25
733,383	263,31
733,713	230,54
734,043	286,72
734,373	293,74
734,703	265,65
735,032	249,27
735,362	225,86
735,692	211,82
736,021	188,41
736,351	200,12
736,68	218,84
737,01	207,14
737,339	228,2
737,669	207,14
737,998	207,14
738,327	193,09
738,657	181,39
738,986	258,63
739,315	239,9
739,644	253,95
739,973	256,29
740,302	265,65
740,631	155,65
740,96	228,2
741,289	277,35
741,618	169,69
741,946	190,75
742,275	277,35
742,604	218,84
742,932	253,95
743,261	211,82
743,589	211,82
743,918	244,59
744,246	251,61
744,575	207,14
744,903	251,61
745,231	265,65
745,56	237,56
745,888	223,52
746,216	160,33
746,544	249,27
746,872	246,93
747,2	195,43
747,528	267,99
747,856	263,31
748,184	225,86
748,512	225,86
748,84	232,88
749,167	190,75
749,495	186,07
749,823	181,39
750,15	244,59
750,478	249,27
750,805	237,56
751,133	211,82
751,46	207,14
751,788	242,25
752,115	272,67
752,442	235,22
752,769	242,25
753,096	237,56
753,424	242,25
753,751	172,03
754,078	249,27
754,405	263,31
754,732	204,8
755,059	253,95
755,385	209,48
755,712	265,65
756,039	267,99
756,366	211,82
756,692	256,29
757,019	256,29
757,345	183,73
757,672	216,5
757,998	256,29
758,325	193,09
758,651	239,9
758,977	209,48
759,304	195,43
759,63	209,48
759,956	237,56
760,282	197,78
760,608	228,2
760,934	209,48
761,26	190,75
761,586	200,12
761,912	237,56
762,238	289,06
762,564	232,88
762,89	115,86
763,215	139,26
763,541	155,65
763,867	221,18
764,192	211,82
764,518	183,73
764,843	282,03
765,169	230,54
765,494	251,61
765,819	186,07
766,145	218,84
766,47	232,88
766,795	211,82
767,12	230,54
767,445	258,63
767,77	216,5
768,095	230,54
768,42	232,88
768,745	246,93
769,07	183,73
769,395	221,18
769,719	183,73
770,044	162,67
770,369	258,63
770,693	214,16
771,018	225,86
771,343	176,71
771,667	218,84
771,991	134,58
772,316	155,65
772,64	235,22
772,964	157,99
773,289	223,52
773,613	242,25
773,937	157,99
774,261	202,46
774,585	183,73
774,909	202,46
775,233	155,65
775,557	207,14
775,881	228,2
776,205	258,63
776,528	176,71
