Data from USB2H080721_04-02-45-683.txt Node
Date: Tue May 16 04:02:45 BRT 2023
User: Quark
Spectrometer: USB2+H08072
Trigger mode: 4
Integration Time (sec): 1,000000E-1
Scans to average: 1
Electric dark correction enabled: true
Nonlinearity correction enabled: false
Boxcar width: 0
XAxis mode: Wavelengths
Number of Pixels in Spectrum: 2048
>>>>>Begin Spectral Data<<<<<
338,582	128,88
338,96	128,88
339,338	128,88
339,716	11,85
340,094	-20,92
340,472	-9,22
340,85	103,13
341,228	-63,05
341,606	-20,92
341,984	-25,6
342,362	-16,24
342,74	18,87
343,117	25,89
343,495	-39,64
343,873	23,55
344,25	7,17
344,628	-65,39
345,005	-9,22
345,383	-39,64
345,76	-39,64
346,138	72,7
346,515	68,02
346,893	37,59
347,27	49,3
347,647	58,66
348,024	98,45
348,402	119,51
348,779	46,96
349,156	44,62
349,533	84,41
349,91	46,96
350,287	42,28
350,664	-16,24
351,041	199,09
351,417	86,75
351,794	159,3
352,171	114,83
352,548	166,32
352,925	173,35
353,301	124,19
353,678	156,96
354,054	145,26
354,431	131,22
354,807	112,49
355,184	206,11
355,56	152,28
355,937	201,43
356,313	119,51
356,689	140,58
357,066	217,82
357,442	142,92
357,818	145,26
358,194	180,37
358,57	119,51
358,946	210,79
359,322	82,07
359,698	171,01
360,074	201,43
360,45	192,07
360,826	220,16
361,202	119,51
361,577	161,64
361,953	178,03
362,329	161,64
362,705	142,92
363,08	159,3
363,456	119,51
363,831	79,72
364,207	61
364,582	96,11
364,958	84,41
365,333	140,58
365,708	149,94
366,084	117,17
366,459	173,35
366,834	68,02
367,209	159,3
367,584	112,49
367,959	147,6
368,334	133,56
368,709	161,64
369,084	107,81
369,459	163,98
369,834	149,94
370,209	124,19
370,584	89,09
370,959	103,13
371,333	138,24
371,708	68,02
372,083	142,92
372,457	147,6
372,832	131,22
373,206	124,19
373,581	103,13
373,955	138,24
374,33	163,98
374,704	145,26
375,078	145,26
375,453	133,56
375,827	79,72
376,201	192,07
376,575	182,71
376,949	147,6
377,323	180,37
377,697	166,32
378,071	222,5
378,445	140,58
378,819	189,73
379,193	161,64
379,567	149,94
379,941	107,81
380,315	142,92
380,688	93,77
381,062	149,94
381,436	180,37
381,809	117,17
382,183	131,22
382,556	145,26
382,93	178,03
383,303	171,01
383,676	105,47
384,05	105,47
384,423	168,66
384,796	149,94
385,17	98,45
385,543	117,17
385,916	107,81
386,289	152,28
386,662	175,69
387,035	152,28
387,408	93,77
387,781	135,9
388,154	147,6
388,527	217,82
388,9	173,35
389,272	166,32
389,645	135,9
390,018	63,34
390,39	168,66
390,763	140,58
391,136	42,28
391,508	128,88
391,881	110,15
392,253	154,62
392,626	194,41
392,998	98,45
393,37	117,17
393,742	121,85
394,115	93,77
394,487	147,6
394,859	178,03
395,231	72,7
395,603	107,81
395,975	82,07
396,347	145,26
396,719	180,37
397,091	180,37
397,463	147,6
397,835	163,98
398,207	231,86
398,578	173,35
398,95	63,34
399,322	100,79
399,693	213,14
400,065	152,28
400,437	91,43
400,808	112,49
401,18	161,64
401,551	199,09
401,922	154,62
402,294	79,72
402,665	180,37
403,036	180,37
403,408	119,51
403,779	178,03
404,15	96,11
404,521	131,22
404,892	168,66
405,263	159,3
405,634	196,75
406,005	196,75
406,376	119,51
406,747	133,56
407,118	138,24
407,488	182,71
407,859	126,54
408,23	84,41
408,6	124,19
408,971	126,54
409,342	147,6
409,712	149,94
410,083	149,94
410,453	156,96
410,823	126,54
411,194	156,96
411,564	224,84
411,934	98,45
412,305	166,32
412,675	131,22
413,045	135,9
413,415	187,39
413,785	121,85
414,155	124,19
414,525	189,73
414,895	140,58
415,265	103,13
415,635	135,9
416,005	147,6
416,375	163,98
416,744	37,59
417,114	117,17
417,484	140,58
417,853	138,24
418,223	147,6
418,592	173,35
418,962	140,58
419,331	135,9
419,701	189,73
420,07	128,88
420,439	142,92
420,809	119,51
421,178	180,37
421,547	175,69
421,916	105,47
422,285	175,69
422,655	140,58
423,024	114,83
423,393	126,54
423,762	100,79
424,13	138,24
424,499	213,14
424,868	138,24
425,237	187,39
425,606	156,96
425,974	159,3
426,343	117,17
426,712	77,38
427,08	103,13
427,449	163,98
427,817	68,02
428,186	131,22
428,554	128,88
428,923	110,15
429,291	121,85
429,659	147,6
430,028	121,85
430,396	140,58
430,764	142,92
431,132	168,66
431,5	156,96
431,868	344,21
432,236	131,22
432,604	163,98
432,972	135,9
433,34	140,58
433,708	180,37
434,076	154,62
434,443	203,77
434,811	156,96
435,179	171,01
435,546	124,19
435,914	234,2
436,282	149,94
436,649	131,22
437,017	171,01
437,384	138,24
437,751	185,05
438,119	199,09
438,486	107,81
438,853	166,32
439,221	117,17
439,588	175,69
439,955	166,32
440,322	154,62
440,689	128,88
441,056	173,35
441,423	241,22
441,79	166,32
442,157	142,92
442,524	119,51
442,89	171,01
443,257	149,94
443,624	201,43
443,991	236,54
444,357	189,73
444,724	93,77
445,09	142,92
445,457	133,56
445,823	133,56
446,19	178,03
446,556	61
446,923	91,43
447,289	140,58
447,655	192,07
448,021	156,96
448,387	238,88
448,754	173,35
449,12	105,47
449,486	126,54
449,852	135,9
450,218	110,15
450,584	180,37
450,95	199,09
451,315	100,79
451,681	229,52
452,047	189,73
452,413	126,54
452,778	82,07
453,144	171,01
453,51	196,75
453,875	131,22
454,241	131,22
454,606	114,83
454,972	187,39
455,337	112,49
455,702	262,29
456,068	187,39
456,433	86,75
456,798	206,11
457,163	142,92
457,528	105,47
457,893	208,45
458,259	142,92
458,624	147,6
458,989	161,64
459,353	138,24
459,718	194,41
460,083	107,81
460,448	224,84
460,813	163,98
461,177	220,16
461,542	440,17
461,907	147,6
462,271	65,68
462,636	84,41
463	65,68
463,365	86,75
463,729	131,22
464,094	147,6
464,458	138,24
464,822	206,11
465,187	175,69
465,551	126,54
465,915	163,98
466,279	149,94
466,643	163,98
467,007	140,58
467,371	171,01
467,735	89,09
468,099	163,98
468,463	138,24
468,827	121,85
469,191	79,72
469,554	79,72
469,918	140,58
470,282	147,6
470,645	227,18
471,009	103,13
471,372	91,43
471,736	100,79
472,099	182,71
472,463	107,81
472,826	135,9
473,189	154,62
473,553	114,83
473,916	187,39
474,279	171,01
474,642	131,22
475,005	171,01
475,369	163,98
475,732	187,39
476,095	121,85
476,458	140,58
476,82	156,96
477,183	161,64
477,546	138,24
477,909	147,6
478,272	128,88
478,634	86,75
478,997	119,51
479,36	163,98
479,722	210,79
480,085	178,03
480,447	154,62
480,81	147,6
481,172	98,45
481,534	196,75
481,897	142,92
482,259	187,39
482,621	203,77
482,983	135,9
483,346	220,16
483,708	203,77
484,07	117,17
484,432	196,75
484,794	135,9
485,156	180,37
485,518	107,81
485,879	128,88
486,241	124,19
486,603	168,66
486,965	180,37
487,326	220,16
487,688	142,92
488,05	98,45
488,411	171,01
488,773	112,49
489,134	63,34
489,496	112,49
489,857	161,64
490,218	119,51
490,58	159,3
490,941	152,28
491,302	175,69
491,663	199,09
492,024	185,05
492,385	178,03
492,746	227,18
493,107	107,81
493,468	105,47
493,829	159,3
494,19	180,37
494,551	124,19
494,912	103,13
495,273	208,45
495,633	105,47
495,994	147,6
496,355	131,22
496,715	189,73
497,076	171,01
497,436	152,28
497,797	159,3
498,157	206,11
498,517	142,92
498,878	159,3
499,238	206,11
499,598	192,07
499,958	131,22
500,319	114,83
500,679	173,35
501,039	147,6
501,399	133,56
501,759	140,58
502,119	192,07
502,479	140,58
502,838	140,58
503,198	154,62
503,558	194,41
503,918	203,77
504,277	196,75
504,637	149,94
504,997	121,85
505,356	79,72
505,716	201,43
506,075	243,56
506,435	203,77
506,794	86,75
507,153	98,45
507,513	105,47
507,872	201,43
508,231	105,47
508,59	100,79
508,949	175,69
509,308	119,51
509,668	147,6
510,027	175,69
510,385	171,01
510,744	140,58
511,103	182,71
511,462	180,37
511,821	161,64
512,18	152,28
512,538	103,13
512,897	72,7
513,256	159,3
513,614	131,22
513,973	135,9
514,331	114,83
514,69	185,05
515,048	103,13
515,406	145,26
515,765	152,28
516,123	124,19
516,481	124,19
516,839	173,35
517,197	185,05
517,556	135,9
517,914	133,56
518,272	86,75
518,63	199,09
518,988	159,3
519,345	138,24
519,703	199,09
520,061	224,84
520,419	133,56
520,777	107,81
521,134	175,69
521,492	161,64
521,849	124,19
522,207	171,01
522,564	161,64
522,922	196,75
523,279	208,45
523,637	201,43
523,994	135,9
524,351	156,96
524,709	201,43
525,066	149,94
525,423	142,92
525,78	84,41
526,137	175,69
526,494	180,37
526,851	131,22
527,208	182,71
527,565	152,28
527,922	194,41
528,279	222,5
528,635	175,69
528,992	171,01
529,349	159,3
529,705	131,22
530,062	152,28
530,419	135,9
530,775	227,18
531,131	100,79
531,488	156,96
531,844	140,58
532,201	199,09
532,557	159,3
532,913	107,81
533,269	140,58
533,626	163,98
533,982	234,2
534,338	203,77
534,694	68,02
535,05	131,22
535,406	208,45
535,762	117,17
536,117	124,19
536,473	124,19
536,829	77,38
537,185	121,85
537,54	149,94
537,896	149,94
538,252	166,32
538,607	185,05
538,963	180,37
539,318	100,79
539,674	98,45
540,029	103,13
540,384	187,39
540,74	156,96
541,095	206,11
541,45	121,85
541,805	135,9
542,16	185,05
542,516	149,94
542,871	187,39
543,226	171,01
543,581	147,6
543,935	117,17
544,29	182,71
544,645	161,64
545	178,03
545,355	103,13
545,709	126,54
546,064	194,41
546,419	121,85
546,773	185,05
547,128	173,35
547,482	89,09
547,837	171,01
548,191	114,83
548,545	126,54
548,9	166,32
549,254	213,14
549,608	171,01
549,962	206,11
550,316	84,41
550,67	140,58
551,024	124,19
551,378	145,26
551,732	112,49
552,086	131,22
552,44	133,56
552,794	131,22
553,148	199,09
553,501	227,18
553,855	142,92
554,209	154,62
554,562	227,18
554,916	138,24
555,27	149,94
555,623	206,11
555,976	171,01
556,33	250,58
556,683	147,6
557,036	105,47
557,39	140,58
557,743	180,37
558,096	201,43
558,449	121,85
558,802	140,58
559,155	185,05
559,508	203,77
559,861	173,35
560,214	168,66
560,567	189,73
560,92	140,58
561,273	189,73
561,625	110,15
561,978	163,98
562,331	138,24
562,683	117,17
563,036	159,3
563,388	238,88
563,741	93,77
564,093	135,9
564,446	114,83
564,798	173,35
565,15	238,88
565,503	103,13
565,855	156,96
566,207	142,92
566,559	145,26
566,911	119,51
567,263	114,83
567,615	149,94
567,967	112,49
568,319	107,81
568,671	201,43
569,023	142,92
569,374	93,77
569,726	154,62
570,078	133,56
570,429	154,62
570,781	131,22
571,133	168,66
571,484	128,88
571,836	135,9
572,187	131,22
572,538	194,41
572,89	166,32
573,241	229,52
573,592	140,58
573,943	105,47
574,295	152,28
574,646	192,07
574,997	126,54
575,348	110,15
575,699	91,43
576,05	89,09
576,401	159,3
576,751	199,09
577,102	227,18
577,453	199,09
577,804	107,81
578,154	185,05
578,505	91,43
578,856	149,94
579,206	175,69
579,557	187,39
579,907	117,17
580,258	133,56
580,608	194,41
580,958	156,96
581,308	161,64
581,659	178,03
582,009	171,01
582,359	126,54
582,709	166,32
583,059	234,2
583,409	210,79
583,759	133,56
584,109	135,9
584,459	138,24
584,809	168,66
585,159	126,54
585,508	203,77
585,858	171,01
586,208	161,64
586,557	166,32
586,907	189,73
587,256	185,05
587,606	163,98
587,955	163,98
588,305	149,94
588,654	138,24
589,003	114,83
589,353	173,35
589,702	154,62
590,051	178,03
590,4	189,73
590,749	103,13
591,098	159,3
591,447	119,51
591,796	152,28
592,145	126,54
592,494	187,39
592,843	138,24
593,192	135,9
593,54	206,11
593,889	128,88
594,238	156,96
594,586	140,58
594,935	173,35
595,283	161,64
595,632	135,9
595,98	114,83
596,329	149,94
596,677	161,64
597,025	145,26
597,374	140,58
597,722	208,45
598,07	145,26
598,418	147,6
598,766	142,92
599,114	156,96
599,462	173,35
599,81	128,88
600,158	215,48
600,506	121,85
600,854	142,92
601,201	135,9
601,549	178,03
601,897	103,13
602,244	124,19
602,592	112,49
602,939	79,72
603,287	220,16
603,634	163,98
603,982	149,94
604,329	201,43
604,676	168,66
605,024	140,58
605,371	145,26
605,718	91,43
606,065	180,37
606,412	175,69
606,759	117,17
607,106	264,63
607,453	114,83
607,8	187,39
608,147	161,64
608,494	126,54
608,841	163,98
609,187	86,75
609,534	166,32
609,881	147,6
610,227	107,81
610,574	192,07
610,92	86,75
611,267	641,45
611,613	224,84
611,96	149,94
612,306	124,19
612,652	107,81
612,999	234,2
613,345	142,92
613,691	138,24
614,037	110,15
614,383	206,11
614,729	166,32
615,075	107,81
615,421	180,37
615,767	189,73
616,113	178,03
616,459	168,66
616,804	189,73
617,15	154,62
617,496	180,37
617,841	171,01
618,187	140,58
618,533	166,32
618,878	227,18
619,223	140,58
619,569	135,9
619,914	213,14
620,26	142,92
620,605	152,28
620,95	103,13
621,295	133,56
621,64	173,35
621,985	98,45
622,33	145,26
622,675	217,82
623,02	149,94
623,365	189,73
623,71	105,47
624,055	217,82
624,4	199,09
624,744	159,3
625,089	149,94
625,434	121,85
625,778	215,48
626,123	187,39
626,467	114,83
626,812	131,22
627,156	117,17
627,501	152,28
627,845	163,98
628,189	161,64
628,533	142,92
628,878	189,73
629,222	229,52
629,566	142,92
629,91	166,32
630,254	142,92
630,598	173,35
630,942	173,35
631,286	163,98
631,63	142,92
631,973	175,69
632,317	98,45
632,661	128,88
633,004	128,88
633,348	117,17
633,692	147,6
634,035	224,84
634,379	187,39
634,722	210,79
635,065	156,96
635,409	161,64
635,752	199,09
636,095	110,15
636,438	163,98
636,782	220,16
637,125	147,6
637,468	147,6
637,811	154,62
638,154	248,24
638,497	124,19
638,84	133,56
639,182	187,39
639,525	142,92
639,868	152,28
640,211	161,64
640,553	147,6
640,896	93,77
641,239	128,88
641,581	203,77
641,924	96,11
642,266	175,69
642,608	180,37
642,951	82,07
643,293	152,28
643,635	89,09
643,978	154,62
644,32	138,24
644,662	208,45
645,004	194,41
645,346	171,01
645,688	131,22
646,03	159,3
646,372	192,07
646,714	121,85
647,055	180,37
647,397	156,96
647,739	173,35
648,081	124,19
648,422	166,32
648,764	166,32
649,105	138,24
649,447	119,51
649,788	154,62
650,13	189,73
650,471	138,24
650,812	175,69
651,153	149,94
651,495	210,79
651,836	119,51
652,177	149,94
652,518	133,56
652,859	96,11
653,2	140,58
653,541	142,92
653,882	93,77
654,223	110,15
654,564	201,43
654,904	128,88
655,245	142,92
655,586	140,58
655,926	142,92
656,267	192,07
656,607	142,92
656,948	156,96
657,288	199,09
657,629	154,62
657,969	149,94
658,309	185,05
658,65	133,56
658,99	168,66
659,33	203,77
659,67	166,32
660,01	105,47
660,35	159,3
660,69	96,11
661,03	112,49
661,37	156,96
661,71	156,96
662,05	178,03
662,39	201,43
662,729	203,77
663,069	201,43
663,409	89,09
663,748	194,41
664,088	173,35
664,427	128,88
664,767	142,92
665,106	156,96
665,445	159,3
665,785	142,92
666,124	339,52
666,463	135,9
666,802	103,13
667,142	201,43
667,481	234,2
667,82	194,41
668,159	152,28
668,498	163,98
668,837	119,51
669,175	227,18
669,514	147,6
669,853	140,58
670,192	210,79
670,53	187,39
670,869	124,19
671,208	163,98
671,546	161,64
671,885	166,32
672,223	168,66
672,561	180,37
672,9	152,28
673,238	222,5
673,576	138,24
673,915	112,49
674,253	168,66
674,591	159,3
674,929	210,79
675,267	156,96
675,605	138,24
675,943	189,73
676,281	149,94
676,619	131,22
676,956	145,26
677,294	110,15
677,632	161,64
677,97	107,81
678,307	222,5
678,645	128,88
678,982	147,6
679,32	124,19
679,657	149,94
679,995	117,17
680,332	96,11
680,669	121,85
681,006	126,54
681,344	117,17
681,681	185,05
682,018	178,03
682,355	152,28
682,692	145,26
683,029	149,94
683,366	159,3
683,703	161,64
684,04	192,07
684,376	147,6
684,713	178,03
685,05	103,13
685,387	58,66
685,723	236,54
686,06	96,11
686,396	220,16
686,733	187,39
687,069	68,02
687,406	159,3
687,742	152,28
688,078	119,51
688,414	166,32
688,751	182,71
689,087	203,77
689,423	149,94
689,759	75,04
690,095	192,07
690,431	163,98
690,767	194,41
691,103	159,3
691,439	220,16
691,774	89,09
692,11	161,64
692,446	201,43
692,781	229,52
693,117	192,07
693,453	208,45
693,788	210,79
694,124	166,32
694,459	194,41
694,794	107,81
695,13	117,17
695,465	199,09
695,8	147,6
696,135	194,41
696,471	182,71
696,806	161,64
697,141	168,66
697,476	163,98
697,811	210,79
698,146	189,73
698,48	220,16
698,815	217,82
699,15	138,24
699,485	142,92
699,819	156,96
700,154	229,52
700,489	156,96
700,823	100,79
701,158	215,48
701,492	145,26
701,826	175,69
702,161	224,84
702,495	140,58
702,829	152,28
703,164	156,96
703,498	217,82
703,832	154,62
704,166	171,01
704,5	199,09
704,834	168,66
705,168	124,19
705,502	166,32
705,836	135,9
706,169	187,39
706,503	124,19
706,837	159,3
707,171	187,39
707,504	163,98
707,838	159,3
708,171	271,65
708,505	178,03
708,838	135,9
709,172	156,96
709,505	210,79
709,838	140,58
710,171	199,09
710,505	140,58
710,838	168,66
711,171	171,01
711,504	203,77
711,837	142,92
712,17	210,79
712,503	98,45
712,836	110,15
713,169	117,17
713,501	173,35
713,834	236,54
714,167	131,22
714,499	178,03
714,832	147,6
715,165	147,6
715,497	126,54
715,83	203,77
716,162	213,14
716,494	171,01
716,827	117,17
717,159	215,48
717,491	185,05
717,823	98,45
718,155	187,39
718,488	187,39
718,82	145,26
719,152	105,47
719,484	166,32
719,815	147,6
720,147	154,62
720,479	175,69
720,811	124,19
721,143	185,05
721,474	152,28
721,806	173,35
722,137	224,84
722,469	175,69
722,8	119,51
723,132	175,69
723,463	178,03
723,795	119,51
724,126	154,62
724,457	194,41
724,788	210,79
725,119	290,37
725,451	178,03
725,782	199,09
726,113	163,98
726,444	163,98
726,775	121,85
727,105	213,14
727,436	168,66
727,767	192,07
728,098	140,58
728,428	203,77
728,759	213,14
729,09	185,05
729,42	189,73
729,751	140,58
730,081	199,09
730,412	175,69
730,742	234,2
731,072	194,41
731,403	142,92
731,733	149,94
732,063	220,16
732,393	180,37
732,723	229,52
733,053	189,73
733,383	217,82
733,713	206,11
734,043	187,39
734,373	154,62
734,703	166,32
735,032	145,26
735,362	131,22
735,692	163,98
736,021	126,54
736,351	180,37
736,68	182,71
737,01	175,69
737,339	98,45
737,669	185,05
737,998	192,07
738,327	194,41
738,657	194,41
738,986	187,39
739,315	124,19
739,644	175,69
739,973	276,33
740,302	203,77
740,631	222,5
740,96	187,39
741,289	77,38
741,618	171,01
741,946	166,32
742,275	163,98
742,604	149,94
742,932	192,07
743,261	229,52
743,589	152,28
743,918	189,73
744,246	178,03
744,575	138,24
744,903	203,77
745,231	262,29
745,56	156,96
745,888	105,47
746,216	194,41
746,544	140,58
746,872	161,64
747,2	152,28
747,528	171,01
747,856	154,62
748,184	124,19
748,512	217,82
748,84	149,94
749,167	222,5
749,495	75,04
749,823	238,88
750,15	159,3
750,478	213,14
750,805	161,64
751,133	140,58
751,46	168,66
751,788	98,45
752,115	128,88
752,442	206,11
752,769	222,5
753,096	178,03
753,424	222,5
753,751	196,75
754,078	171,01
754,405	140,58
754,732	110,15
755,059	133,56
755,385	128,88
755,712	163,98
756,039	156,96
756,366	124,19
756,692	154,62
757,019	175,69
757,345	175,69
757,672	124,19
757,998	217,82
758,325	196,75
758,651	117,17
758,977	149,94
759,304	173,35
759,63	149,94
759,956	217,82
760,282	163,98
760,608	100,79
760,934	163,98
761,26	199,09
761,586	138,24
761,912	163,98
762,238	65,68
762,564	175,69
762,89	187,39
763,215	213,14
763,541	210,79
763,867	140,58
764,192	149,94
764,518	201,43
764,843	128,88
765,169	156,96
765,494	210,79
765,819	166,32
766,145	171,01
766,47	238,88
766,795	238,88
767,12	138,24
767,445	126,54
767,77	140,58
768,095	206,11
768,42	187,39
768,745	189,73
769,07	213,14
769,395	224,84
769,719	215,48
770,044	213,14
770,369	147,6
770,693	192,07
771,018	145,26
771,343	91,43
771,667	201,43
771,991	114,83
772,316	201,43
772,64	173,35
772,964	180,37
773,289	173,35
773,613	119,51
773,937	182,71
774,261	194,41
774,585	138,24
774,909	119,51
775,233	121,85
775,557	224,84
775,881	173,35
776,205	159,3
776,528	192,07
776,852	199,09
777,176	119,51
777,499	110,15
777,823	154,62
